Bruker Nano GmbH Berlin, Germany
Esprit 1.9

Date: 20.02.2020 12:35:44
Real time: 231317
Life time: 225531
Pulse density: 4047

Primary energy: 30
Take off angle: 35
Tilt angle: 0
Azimut angle: 0

Detector type: XFlash
Window type: slew AP3.3
Detector thickness: 0.45
Si dead layer:0.08

Calibration, lin.: 4.999
Calibration, abs.: -475.507
Mn FWHM: 140.584
Fano factor: 0.144
Channels: 4096

Energy Counts
-0.4755     0
-0.4705     0
-0.4655     0
-0.4605     0
-0.4555     0
-0.4505     0
-0.4455     0
-0.4405     0
-0.4355     0
-0.4305     0
-0.4255     0
-0.4205     0
-0.4155     0
-0.4105     0
-0.4055     0
-0.4005     0
-0.3955     0
-0.3905     0
-0.3855     0
-0.3805     0
-0.3755     0
-0.3705     0
-0.3655     0
-0.3605     0
-0.3555     0
-0.3505     0
-0.3455     0
-0.3405     0
-0.3355     0
-0.3306     0
-0.3256     0
-0.3206     0
-0.3156     0
-0.3106     0
-0.3056     0
-0.3006     0
-0.2956     0
-0.2906     0
-0.2856     0
-0.2806     0
-0.2756     0
-0.2706     0
-0.2656     0
-0.2606     0
-0.2556     0
-0.2506     0
-0.2456     0
-0.2406     0
-0.2356     0
-0.2306     0
-0.2256     0
-0.2206     0
-0.2156     0
-0.2106     0
-0.2056     0
-0.2006     0
-0.1956     0
-0.1906     0
-0.1856     0
-0.1806     0
-0.1756     0
-0.1706     0
-0.1656     0
-0.1606     0
-0.1556     0
-0.1506     0
-0.1456     0
-0.1406     0
-0.1356     0
-0.1306     0
-0.1256     0
-0.1206     0
-0.1156     0
-0.1106     0
-0.1056     0
-0.1006     0
-0.0956     0
-0.0906     0
-0.0856     0
-0.0806     0
-0.0756     1
-0.0706     3
-0.0656     2
-0.0606    18
-0.0556    47
-0.0506   146
-0.0456   392
-0.0406   799
-0.0356  1665
-0.0306  3158
-0.0256  5452
-0.0206  8618
-0.0156 11746
-0.0106 15247
-0.0056 17285
-0.0006 18878
 0.0043 17843
 0.0093 15769
 0.0143 12505
 0.0193  8957
 0.0243  6044
 0.0293  3649
 0.0343  1887
 0.0393   974
 0.0443   451
 0.0493   186
 0.0543    73
 0.0593    33
 0.0643    10
 0.0693     3
 0.0743     3
 0.0793     0
 0.0843     0
 0.0893     0
 0.0943     0
 0.0993     0
 0.1043     0
 0.1093     0
 0.1143     0
 0.1193     0
 0.1243     0
 0.1293     0
 0.1343     0
 0.1393     0
 0.1443     0
 0.1493   171
 0.1543   191
 0.1593   139
 0.1643     0
 0.1693     0
 0.1743     0
 0.1793     0
 0.1843     0
 0.1893     0
 0.1943     0
 0.1993     0
 0.2043     0
 0.2093     0
 0.2143     0
 0.2193     0
 0.2243     0
 0.2293     0
 0.2343     0
 0.2393     0
 0.2443     0
 0.2493   283
 0.2543   809
 0.2593  1426
 0.2643  2140
 0.2693  3163
 0.2743  3844
 0.2793  4274
 0.2843  4616
 0.2893  4401
 0.2943  4093
 0.2993  3626
 0.3043  3092
 0.3093  2393
 0.3143  1852
 0.3193  1238
 0.3243   987
 0.3293   836
 0.3342   678
 0.3392   693
 0.3442   589
 0.3492   524
 0.3542   516
 0.3592   444
 0.3642   471
 0.3692   488
 0.3742   434
 0.3792   388
 0.3842   356
 0.3892   366
 0.3942   362
 0.3992   362
 0.4042   366
 0.4092   385
 0.4142   324
 0.4192   331
 0.4242   326
 0.4292   269
 0.4342   302
 0.4392   334
 0.4442   360
 0.4492   325
 0.4542   334
 0.4592   297
 0.4642   337
 0.4692   319
 0.4742   342
 0.4792   317
 0.4842   312
 0.4892   343
 0.4942   337
 0.4992   300
 0.5042   342
 0.5092   337
 0.5142   387
 0.5192   413
 0.5242   394
 0.5292   374
 0.5342   354
 0.5392   333
 0.5442   367
 0.5492   335
 0.5542   314
 0.5592   249
 0.5642   259
 0.5692   245
 0.5742   238
 0.5792   256
 0.5842   292
 0.5892   219
 0.5942   189
 0.5992   198
 0.6042   209
 0.6092   181
 0.6142   209
 0.6192   221
 0.6242   215
 0.6292   219
 0.6342   209
 0.6392   208
 0.6442   230
 0.6492   210
 0.6542   227
 0.6592   198
 0.6642   244
 0.6691   204
 0.6741   220
 0.6791   201
 0.6841   241
 0.6891   208
 0.6941   204
 0.6991   212
 0.7041   247
 0.7091   202
 0.7141   189
 0.7191   229
 0.7241   199
 0.7291   257
 0.7341   187
 0.7391   240
 0.7441   259
 0.7491   218
 0.7541   204
 0.7591   298
 0.7641   343
 0.7691   386
 0.7741   453
 0.7791   452
 0.7841   525
 0.7891   645
 0.7941   622
 0.7991   778
 0.8041   786
 0.8091   882
 0.8141   854
 0.8191   870
 0.8241   895
 0.8291   904
 0.8341   853
 0.8391   867
 0.8441   755
 0.8491   700
 0.8541   706
 0.8591   759
 0.8641   778
 0.8691   886
 0.8741  1105
 0.8791  1370
 0.8841  1839
 0.8891  2254
 0.8941  2828
 0.8991  3459
 0.9041  4375
 0.9091  5238
 0.9141  6101
 0.9191  6871
 0.9241  7402
 0.9291  7738
 0.9341  7984
 0.9391  7947
 0.9441  7443
 0.9491  6980
 0.9541  6137
 0.9591  5081
 0.9641  4348
 0.9691  3513
 0.9741  2740
 0.9791  2108
 0.9841  1630
 0.9891  1122
 0.9941   779
 0.9991   594
  1.004   445
  1.009   337
  1.014   280
  1.019   207
  1.024   188
  1.029   181
  1.034   143
  1.039   138
  1.044   127
  1.049   159
  1.054   143
  1.059   126
  1.064   123
  1.069   121
  1.074   116
  1.079   128
  1.084   131
  1.089   101
  1.094   129
  1.099   109
  1.104   124
  1.109    97
  1.114   117
  1.119   110
  1.124    99
  1.129   104
  1.134   124
  1.139   120
  1.144   114
  1.149   112
  1.154   101
  1.159   131
  1.164   131
  1.169   126
  1.174   126
  1.179   124
  1.184   154
  1.189   106
  1.194   117
  1.199   114
  1.204   136
  1.209   133
  1.214    98
  1.219   137
  1.224   110
  1.229   111
  1.234   103
  1.239    99
  1.244   102
  1.249   129
  1.254   117
  1.259   132
  1.264   118
  1.269    92
  1.274   111
  1.279   114
  1.284   125
  1.289   124
  1.294   132
  1.299   121
  1.304   140
  1.309   128
  1.314   118
  1.319   134
  1.324   118
  1.329   108
 1.3339   134
 1.3389   140
 1.3439   101
 1.3489   131
 1.3539   116
 1.3589    96
 1.3639   123
 1.3689    94
 1.3739   112
 1.3789   109
 1.3839   143
 1.3889   120
 1.3939   148
 1.3989   122
 1.4039   108
 1.4089   108
 1.4139   121
 1.4189   124
 1.4239   127
 1.4289   130
 1.4339   124
 1.4389   128
 1.4439   110
 1.4489   120
 1.4539   133
 1.4589   119
 1.4639   111
 1.4689   127
 1.4739   131
 1.4789   141
 1.4839   112
 1.4889   141
 1.4939   114
 1.4989   110
 1.5039   103
 1.5089   120
 1.5139   141
 1.5189   119
 1.5239   129
 1.5289   128
 1.5339   105
 1.5389   144
 1.5439   114
 1.5489   118
 1.5539   134
 1.5589   126
 1.5639   128
 1.5689   113
 1.5739   124
 1.5789   117
 1.5839   128
 1.5889   124
 1.5939   150
 1.5989   112
 1.6039   128
 1.6089   118
 1.6139   126
 1.6189   125
 1.6239   109
 1.6289   122
 1.6339   155
 1.6389   132
 1.6439   110
 1.6489   120
 1.6539   135
 1.6589   135
 1.6639   122
 1.6688   107
 1.6738   116
 1.6788   131
 1.6838   120
 1.6888   125
 1.6938   124
 1.6988   126
 1.7038   153
 1.7088   119
 1.7138   141
 1.7188   145
 1.7238   148
 1.7288   173
 1.7338   166
 1.7388   156
 1.7438   153
 1.7488   174
 1.7538   187
 1.7588   180
 1.7638   162
 1.7688   177
 1.7738   168
 1.7788   159
 1.7838   172
 1.7888   156
 1.7938   155
 1.7988   131
 1.8038   147
 1.8088   144
 1.8138   129
 1.8188    95
 1.8238   129
 1.8288   124
 1.8338   141
 1.8388   157
 1.8438   165
 1.8488   123
 1.8538   139
 1.8588   150
 1.8638   156
 1.8688   164
 1.8738   135
 1.8788   155
 1.8838   136
 1.8888   153
 1.8938   146
 1.8988   149
 1.9038   155
 1.9088   164
 1.9138   137
 1.9188   157
 1.9238   138
 1.9288   137
 1.9338   103
 1.9388   142
 1.9438   153
 1.9488   169
 1.9538   165
 1.9588   165
 1.9638   144
 1.9688   126
 1.9738   164
 1.9788   154
 1.9838   144
 1.9888   144
 1.9938   175
 1.9988   173
 2.0037   184
 2.0087   179
 2.0137   161
 2.0187   170
 2.0237   204
 2.0287   182
 2.0337   185
 2.0387   188
 2.0437   183
 2.0487   167
 2.0537   150
 2.0587   179
 2.0637   175
 2.0687   153
 2.0737   161
 2.0787   147
 2.0837   166
 2.0887   188
 2.0937   145
 2.0987   181
 2.1037   158
 2.1087   159
 2.1137   131
 2.1187   174
 2.1237   170
 2.1287   179
 2.1337   172
 2.1387   173
 2.1437   163
 2.1487   144
 2.1537   171
 2.1587   157
 2.1637   162
 2.1687   165
 2.1737   185
 2.1787   153
 2.1837   192
 2.1887   147
 2.1937   156
 2.1987   150
 2.2037   168
 2.2087   119
 2.2137   158
 2.2187   162
 2.2237   132
 2.2287   146
 2.2337   153
 2.2387   136
 2.2437   178
 2.2487   169
 2.2537   183
 2.2587   161
 2.2637   155
 2.2687   147
 2.2737   152
 2.2787   162
 2.2837   149
 2.2887   148
 2.2937   163
 2.2987   153
 2.3037   132
 2.3087   158
 2.3137   171
 2.3187   166
 2.3237   178
 2.3287   162
 2.3336   154
 2.3386   185
 2.3436   181
 2.3486   179
 2.3536   154
 2.3586   195
 2.3636   160
 2.3686   163
 2.3736   160
 2.3786   178
 2.3836   155
 2.3886   136
 2.3936   169
 2.3986   161
 2.4036   169
 2.4086   155
 2.4136   181
 2.4186   176
 2.4236   160
 2.4286   185
 2.4336   171
 2.4386   171
 2.4436   183
 2.4486   161
 2.4536   165
 2.4586   192
 2.4636   174
 2.4686   182
 2.4736   174
 2.4786   189
 2.4836   186
 2.4886   168
 2.4936   175
 2.4986   189
 2.5036   175
 2.5086   173
 2.5136   174
 2.5186   175
 2.5236   192
 2.5286   173
 2.5336   162
 2.5386   179
 2.5436   161
 2.5486   175
 2.5536   167
 2.5586   159
 2.5636   137
 2.5686   170
 2.5736   167
 2.5786   178
 2.5836   176
 2.5886   202
 2.5936   204
 2.5986   189
 2.6036   170
 2.6086   194
 2.6136   203
 2.6186   198
 2.6236   197
 2.6286   187
 2.6336   180
 2.6386   190
 2.6436   195
 2.6486   176
 2.6536   197
 2.6586   211
 2.6636   191
 2.6685   206
 2.6735   172
 2.6785   185
 2.6835   188
 2.6885   183
 2.6935   189
 2.6985   195
 2.7035   180
 2.7085   180
 2.7135   174
 2.7185   220
 2.7235   185
 2.7285   208
 2.7335   190
 2.7385   194
 2.7435   179
 2.7485   161
 2.7535   189
 2.7585   210
 2.7635   186
 2.7685   160
 2.7735   185
 2.7785   208
 2.7835   219
 2.7885   173
 2.7935   215
 2.7985   164
 2.8035   195
 2.8085   164
 2.8135   174
 2.8185   200
 2.8235   182
 2.8285   177
 2.8335   195
 2.8385   174
 2.8435   190
 2.8485   203
 2.8535   210
 2.8585   208
 2.8635   194
 2.8685   239
 2.8735   194
 2.8785   206
 2.8835   204
 2.8885   216
 2.8935   195
 2.8985   193
 2.9035   178
 2.9085   189
 2.9135   178
 2.9185   213
 2.9235   182
 2.9285   194
 2.9335   180
 2.9385   197
 2.9435   201
 2.9485   205
 2.9535   180
 2.9585   195
 2.9635   215
 2.9685   213
 2.9735   215
 2.9785   173
 2.9835   192
 2.9885   202
 2.9935   186
 2.9985   198
 3.0034   200
 3.0084   219
 3.0134   234
 3.0184   193
 3.0234   240
 3.0284   200
 3.0334   199
 3.0384   175
 3.0434   203
 3.0484   176
 3.0534   185
 3.0584   213
 3.0634   190
 3.0684   196
 3.0734   208
 3.0784   183
 3.0834   168
 3.0884   191
 3.0934   208
 3.0984   186
 3.1034   183
 3.1084   188
 3.1134   191
 3.1184   207
 3.1234   189
 3.1284   215
 3.1334   189
 3.1384   209
 3.1434   206
 3.1484   197
 3.1534   191
 3.1584   212
 3.1634   208
 3.1684   207
 3.1734   203
 3.1784   202
 3.1834   198
 3.1884   191
 3.1934   233
 3.1984   206
 3.2034   180
 3.2084   186
 3.2134   207
 3.2184   212
 3.2234   239
 3.2284   207
 3.2334   192
 3.2384   206
 3.2434   237
 3.2484   216
 3.2534   210
 3.2584   205
 3.2634   183
 3.2684   214
 3.2734   214
 3.2784   216
 3.2834   204
 3.2884   203
 3.2934   245
 3.2984   202
 3.3034   216
 3.3084   200
 3.3134   214
 3.3184   202
 3.3234   228
 3.3284   242
 3.3333   220
 3.3383   207
 3.3433   221
 3.3483   195
 3.3533   188
 3.3583   205
 3.3633   182
 3.3683   244
 3.3733   208
 3.3783   226
 3.3833   209
 3.3883   204
 3.3933   164
 3.3983   204
 3.4033   247
 3.4083   218
 3.4133   255
 3.4183   251
 3.4233   208
 3.4283   217
 3.4333   209
 3.4383   240
 3.4433   216
 3.4483   205
 3.4533   218
 3.4583   227
 3.4633   206
 3.4683   216
 3.4733   215
 3.4783   223
 3.4833   208
 3.4883   186
 3.4933   210
 3.4983   217
 3.5033   224
 3.5083   209
 3.5133   226
 3.5183   220
 3.5233   216
 3.5283   206
 3.5333   215
 3.5383   231
 3.5433   231
 3.5483   223
 3.5533   205
 3.5583   224
 3.5633   222
 3.5683   205
 3.5733   171
 3.5783   212
 3.5833   242
 3.5883   224
 3.5933   209
 3.5983   197
 3.6033   212
 3.6083   182
 3.6133   235
 3.6183   249
 3.6233   205
 3.6283   211
 3.6333   213
 3.6383   206
 3.6433   234
 3.6483   190
 3.6533   228
 3.6583   255
 3.6633   218
 3.6682   188
 3.6732   241
 3.6782   232
 3.6832   220
 3.6882   231
 3.6932   223
 3.6982   269
 3.7032   204
 3.7082   223
 3.7132   236
 3.7182   236
 3.7232   227
 3.7282   220
 3.7332   238
 3.7382   216
 3.7432   230
 3.7482   247
 3.7532   205
 3.7582   201
 3.7632   204
 3.7682   208
 3.7732   206
 3.7782   235
 3.7832   218
 3.7882   197
 3.7932   228
 3.7982   226
 3.8032   220
 3.8082   224
 3.8132   250
 3.8182   251
 3.8232   252
 3.8282   201
 3.8332   209
 3.8382   206
 3.8432   210
 3.8482   219
 3.8532   209
 3.8582   217
 3.8632   231
 3.8682   226
 3.8732   214
 3.8782   206
 3.8832   237
 3.8882   218
 3.8932   217
 3.8982   180
 3.9032   249
 3.9082   215
 3.9132   220
 3.9182   194
 3.9232   237
 3.9282   207
 3.9332   179
 3.9382   239
 3.9432   236
 3.9482   228
 3.9532   221
 3.9582   239
 3.9632   234
 3.9682   250
 3.9732   218
 3.9782   234
 3.9832   213
 3.9882   218
 3.9932   200
 3.9982   214
 4.0031   220
 4.0081   210
 4.0131   207
 4.0181   214
 4.0231   210
 4.0281   225
 4.0331   233
 4.0381   221
 4.0431   195
 4.0481   212
 4.0531   242
 4.0581   222
 4.0631   237
 4.0681   217
 4.0731   220
 4.0781   224
 4.0831   224
 4.0881   210
 4.0931   222
 4.0981   212
 4.1031   227
 4.1081   235
 4.1131   229
 4.1181   200
 4.1231   199
 4.1281   228
 4.1331   209
 4.1381   222
 4.1431   226
 4.1481   220
 4.1531   233
 4.1581   198
 4.1631   249
 4.1681   218
 4.1731   207
 4.1781   231
 4.1831   216
 4.1881   221
 4.1931   221
 4.1981   220
 4.2031   218
 4.2081   211
 4.2131   184
 4.2181   204
 4.2231   214
 4.2281   227
 4.2331   216
 4.2381   207
 4.2431   223
 4.2481   228
 4.2531   227
 4.2581   225
 4.2631   216
 4.2681   207
 4.2731   235
 4.2781   198
 4.2831   233
 4.2881   221
 4.2931   239
 4.2981   230
 4.3031   207
 4.3081   255
 4.3131   232
 4.3181   235
 4.3231   197
 4.3281   227
  4.333   206
  4.338   225
  4.343   207
  4.348   220
  4.353   222
  4.358   203
  4.363   273
  4.368   227
  4.373   219
  4.378   215
  4.383   254
  4.388   212
  4.393   227
  4.398   210
  4.403   237
  4.408   233
  4.413   221
  4.418   215
  4.423   207
  4.428   218
  4.433   211
  4.438   206
  4.443   218
  4.448   226
  4.453   229
  4.458   197
  4.463   238
  4.468   238
  4.473   227
  4.478   226
  4.483   223
  4.488   233
  4.493   219
  4.498   250
  4.503   222
  4.508   198
  4.513   209
  4.518   231
  4.523   209
  4.528   219
  4.533   200
  4.538   198
  4.543   235
  4.548   245
  4.553   238
  4.558   210
  4.563   194
  4.568   221
  4.573   212
  4.578   212
  4.583   215
  4.588   224
  4.593   223
  4.598   199
  4.603   207
  4.608   238
  4.613   232
  4.618   220
  4.623   201
  4.628   236
  4.633   207
  4.638   254
  4.643   214
  4.648   254
  4.653   206
  4.658   195
  4.663   243
 4.6679   212
 4.6729   205
 4.6779   241
 4.6829   210
 4.6879   207
 4.6929   201
 4.6979   212
 4.7029   221
 4.7079   198
 4.7129   195
 4.7179   202
 4.7229   214
 4.7279   209
 4.7329   218
 4.7379   233
 4.7429   208
 4.7479   230
 4.7529   206
 4.7579   216
 4.7629   185
 4.7679   202
 4.7729   196
 4.7779   204
 4.7829   228
 4.7879   189
 4.7929   210
 4.7979   224
 4.8029   222
 4.8079   220
 4.8129   198
 4.8179   258
 4.8229   220
 4.8279   191
 4.8329   183
 4.8379   196
 4.8429   226
 4.8479   209
 4.8529   225
 4.8579   218
 4.8629   220
 4.8679   245
 4.8729   215
 4.8779   237
 4.8829   251
 4.8879   195
 4.8929   228
 4.8979   225
 4.9029   236
 4.9079   234
 4.9129   225
 4.9179   219
 4.9229   227
 4.9279   213
 4.9329   206
 4.9379   227
 4.9429   193
 4.9479   206
 4.9529   209
 4.9579   214
 4.9629   209
 4.9679   178
 4.9729   229
 4.9779   216
 4.9829   204
 4.9879   200
 4.9929   236
 4.9979   197
 5.0028   194
 5.0078   239
 5.0128   212
 5.0178   221
 5.0228   217
 5.0278   210
 5.0328   236
 5.0378   229
 5.0428   239
 5.0478   204
 5.0528   236
 5.0578   216
 5.0628   193
 5.0678   217
 5.0728   202
 5.0778   200
 5.0828   228
 5.0878   189
 5.0928   204
 5.0978   208
 5.1028   185
 5.1078   193
 5.1128   187
 5.1178   216
 5.1228   209
 5.1278   194
 5.1328   251
 5.1378   196
 5.1428   216
 5.1478   207
 5.1528   209
 5.1578   210
 5.1628   253
 5.1678   178
 5.1728   227
 5.1778   185
 5.1828   222
 5.1878   178
 5.1928   213
 5.1978   218
 5.2028   190
 5.2078   185
 5.2128   195
 5.2178   215
 5.2228   261
 5.2278   215
 5.2328   168
 5.2378   188
 5.2428   204
 5.2478   220
 5.2528   225
 5.2578   222
 5.2628   188
 5.2678   212
 5.2728   201
 5.2778   219
 5.2828   230
 5.2878   235
 5.2928   178
 5.2978   205
 5.3028   185
 5.3078   210
 5.3128   235
 5.3178   192
 5.3228   189
 5.3278   182
 5.3327   231
 5.3377   212
 5.3427   197
 5.3477   186
 5.3527   219
 5.3577   203
 5.3627   213
 5.3677   196
 5.3727   196
 5.3777   197
 5.3827   236
 5.3877   224
 5.3927   219
 5.3977   192
 5.4027   217
 5.4077   238
 5.4127   219
 5.4177   208
 5.4227   202
 5.4277   198
 5.4327   200
 5.4377   197
 5.4427   215
 5.4477   229
 5.4527   242
 5.4577   218
 5.4627   227
 5.4677   208
 5.4727   197
 5.4777   228
 5.4827   210
 5.4877   218
 5.4927   199
 5.4977   186
 5.5027   213
 5.5077   212
 5.5127   214
 5.5177   212
 5.5227   189
 5.5277   200
 5.5327   208
 5.5377   192
 5.5427   220
 5.5477   187
 5.5527   177
 5.5577   220
 5.5627   230
 5.5677   201
 5.5727   175
 5.5777   224
 5.5827   203
 5.5877   204
 5.5927   192
 5.5977   208
 5.6027   187
 5.6077   185
 5.6127   207
 5.6177   206
 5.6227   218
 5.6277   186
 5.6327   197
 5.6377   226
 5.6427   180
 5.6477   189
 5.6527   183
 5.6577   194
 5.6627   205
 5.6676   177
 5.6726   178
 5.6776   213
 5.6826   200
 5.6876   172
 5.6926   179
 5.6976   216
 5.7026   214
 5.7076   205
 5.7126   221
 5.7176   227
 5.7226   232
 5.7276   203
 5.7326   180
 5.7376   197
 5.7426   201
 5.7476   201
 5.7526   170
 5.7576   183
 5.7626   195
 5.7676   204
 5.7726   222
 5.7776   170
 5.7826   178
 5.7876   131
 5.7926   185
 5.7976   170
 5.8026   195
 5.8076   201
 5.8126   187
 5.8176   227
 5.8226   239
 5.8276   199
 5.8326   199
 5.8376   166
 5.8426   181
 5.8476   214
 5.8526   183
 5.8576   192
 5.8626   182
 5.8676   206
 5.8726   217
 5.8776   181
 5.8826   191
 5.8876   196
 5.8926   173
 5.8976   212
 5.9026   192
 5.9076   194
 5.9126   203
 5.9176   174
 5.9226   203
 5.9276   181
 5.9326   203
 5.9376   186
 5.9426   186
 5.9476   185
 5.9526   208
 5.9576   203
 5.9626   171
 5.9676   180
 5.9726   184
 5.9776   197
 5.9826   214
 5.9876   175
 5.9926   188
 5.9976   197
 6.0025   215
 6.0075   182
 6.0125   202
 6.0175   186
 6.0225   181
 6.0275   163
 6.0325   203
 6.0375   179
 6.0425   183
 6.0475   190
 6.0525   186
 6.0575   201
 6.0625   194
 6.0675   185
 6.0725   200
 6.0775   216
 6.0825   199
 6.0875   192
 6.0925   209
 6.0975   211
 6.1025   196
 6.1075   195
 6.1125   229
 6.1175   175
 6.1225   216
 6.1275   211
 6.1325   184
 6.1375   170
 6.1425   207
 6.1475   226
 6.1525   175
 6.1575   194
 6.1625   172
 6.1675   202
 6.1725   188
 6.1775   189
 6.1825   180
 6.1875   161
 6.1925   193
 6.1975   208
 6.2025   194
 6.2075   185
 6.2125   205
 6.2175   160
 6.2225   158
 6.2275   189
 6.2325   191
 6.2375   194
 6.2425   179
 6.2475   190
 6.2525   166
 6.2575   199
 6.2625   208
 6.2675   212
 6.2725   196
 6.2775   220
 6.2825   193
 6.2875   198
 6.2925   165
 6.2975   194
 6.3025   224
 6.3075   193
 6.3125   208
 6.3175   184
 6.3225   249
 6.3275   213
 6.3324   216
 6.3374   207
 6.3424   252
 6.3474   223
 6.3524   231
 6.3574   239
 6.3624   239
 6.3674   263
 6.3724   254
 6.3774   259
 6.3824   288
 6.3874   254
 6.3924   278
 6.3974   273
 6.4024   354
 6.4074   300
 6.4124   274
 6.4174   290
 6.4224   310
 6.4274   345
 6.4324   289
 6.4374   319
 6.4424   309
 6.4474   301
 6.4524   274
 6.4574   307
 6.4624   271
 6.4674   254
 6.4724   288
 6.4774   236
 6.4824   275
 6.4874   283
 6.4924   227
 6.4974   229
 6.5024   214
 6.5074   248
 6.5124   210
 6.5174   248
 6.5224   193
 6.5274   187
 6.5324   180
 6.5374   195
 6.5424   186
 6.5474   180
 6.5524   220
 6.5574   213
 6.5624   176
 6.5674   195
 6.5724   191
 6.5774   208
 6.5824   178
 6.5874   197
 6.5924   200
 6.5974   182
 6.6024   205
 6.6074   189
 6.6124   213
 6.6174   175
 6.6224   185
 6.6274   152
 6.6324   158
 6.6374   203
 6.6424   197
 6.6474   182
 6.6524   165
 6.6574   185
 6.6624   167
 6.6673   181
 6.6723   183
 6.6773   183
 6.6823   204
 6.6873   182
 6.6923   195
 6.6973   186
 6.7023   203
 6.7073   168
 6.7123   180
 6.7173   148
 6.7223   172
 6.7273   164
 6.7323   156
 6.7373   167
 6.7423   153
 6.7473   184
 6.7523   191
 6.7573   190
 6.7623   194
 6.7673   195
 6.7723   198
 6.7773   181
 6.7823   182
 6.7873   193
 6.7923   194
 6.7973   179
 6.8023   191
 6.8073   190
 6.8123   181
 6.8173   162
 6.8223   174
 6.8273   168
 6.8323   190
 6.8373   206
 6.8423   181
 6.8473   181
 6.8523   183
 6.8573   161
 6.8623   184
 6.8673   160
 6.8723   196
 6.8773   159
 6.8823   174
 6.8873   179
 6.8923   185
 6.8973   178
 6.9023   190
 6.9073   159
 6.9123   189
 6.9173   183
 6.9223   177
 6.9273   197
 6.9323   155
 6.9373   191
 6.9423   195
 6.9473   173
 6.9523   203
 6.9573   155
 6.9623   170
 6.9673   184
 6.9723   174
 6.9773   194
 6.9823   202
 6.9873   157
 6.9923   200
 6.9973   172
 7.0022   177
 7.0072   203
 7.0122   211
 7.0172   211
 7.0222   195
 7.0272   177
 7.0322   181
 7.0372   206
 7.0422   209
 7.0472   196
 7.0522   189
 7.0572   168
 7.0622   225
 7.0672   213
 7.0722   202
 7.0772   189
 7.0822   176
 7.0872   197
 7.0922   210
 7.0972   205
 7.1022   195
 7.1072   215
 7.1122   171
 7.1172   193
 7.1222   188
 7.1272   164
 7.1322   184
 7.1372   170
 7.1422   218
 7.1472   207
 7.1522   201
 7.1572   203
 7.1622   219
 7.1672   179
 7.1722   161
 7.1772   173
 7.1822   185
 7.1872   172
 7.1922   195
 7.1972   191
 7.2022   181
 7.2072   187
 7.2122   185
 7.2172   176
 7.2222   216
 7.2272   177
 7.2322   210
 7.2372   195
 7.2422   177
 7.2472   213
 7.2522   216
 7.2572   185
 7.2622   172
 7.2672   177
 7.2722   200
 7.2772   189
 7.2822   170
 7.2872   173
 7.2922   189
 7.2972   205
 7.3022   178
 7.3072   177
 7.3122   196
 7.3172   196
 7.3222   184
 7.3272   183
 7.3321   190
 7.3371   186
 7.3421   182
 7.3471   165
 7.3521   175
 7.3571   179
 7.3621   187
 7.3671   178
 7.3721   211
 7.3771   165
 7.3821   168
 7.3871   209
 7.3921   222
 7.3971   211
 7.4021   187
 7.4071   229
 7.4121   234
 7.4171   224
 7.4221   216
 7.4271   220
 7.4321   193
 7.4371   245
 7.4421   233
 7.4471   237
 7.4521   226
 7.4571   232
 7.4621   253
 7.4671   263
 7.4721   256
 7.4771   260
 7.4821   272
 7.4871   263
 7.4921   263
 7.4971   246
 7.5021   277
 7.5071   269
 7.5121   295
 7.5171   283
 7.5221   252
 7.5271   229
 7.5321   290
 7.5371   252
 7.5421   260
 7.5471   260
 7.5521   236
 7.5571   221
 7.5621   253
 7.5671   231
 7.5721   196
 7.5771   280
 7.5821   257
 7.5871   246
 7.5921   244
 7.5971   219
 7.6021   227
 7.6071   224
 7.6121   223
 7.6171   250
 7.6221   209
 7.6271   189
 7.6321   209
 7.6371   206
 7.6421   201
 7.6471   193
 7.6521   203
 7.6571   221
 7.6621   222
  7.667   250
  7.672   246
  7.677   229
  7.682   223
  7.687   219
  7.692   225
  7.697   196
  7.702   220
  7.707   234
  7.712   240
  7.717   254
  7.722   232
  7.727   234
  7.732   247
  7.737   235
  7.742   246
  7.747   249
  7.752   249
  7.757   230
  7.762   258
  7.767   242
  7.772   242
  7.777   266
  7.782   245
  7.787   265
  7.792   237
  7.797   258
  7.802   281
  7.807   253
  7.812   272
  7.817   272
  7.822   310
  7.827   289
  7.832   281
  7.837   293
  7.842   284
  7.847   306
  7.852   330
  7.857   340
  7.862   370
  7.867   334
  7.872   389
  7.877   353
  7.882   412
  7.887   456
  7.892   505
  7.897   521
  7.902   539
  7.907   605
  7.912   664
  7.917   772
  7.922   843
  7.927  1002
  7.932  1127
  7.937  1244
  7.942  1345
  7.947  1572
  7.952  1738
  7.957  2096
  7.962  2322
  7.967  2642
  7.972  2938
  7.977  3256
  7.982  3586
  7.987  4035
  7.992  4386
  7.997  4855
 8.0019  5378
 8.0069  5640
 8.0119  6254
 8.0169  6610
 8.0219  7225
 8.0269  7496
 8.0319  8172
 8.0369  8232
 8.0419  8733
 8.0469  9045
 8.0519  9309
 8.0569  9253
 8.0619  9735
 8.0669  9693
 8.0719  9574
 8.0769  9652
 8.0819  9565
 8.0869  9326
 8.0919  9365
 8.0969  8907
 8.1019  8640
 8.1069  8263
 8.1119  8009
 8.1169  7504
 8.1219  6990
 8.1269  6614
 8.1319  6120
 8.1369  5777
 8.1419  5078
 8.1469  4854
 8.1519  4349
 8.1569  3969
 8.1619  3588
 8.1669  3105
 8.1719  2697
 8.1769  2388
 8.1819  2132
 8.1869  1858
 8.1919  1689
 8.1969  1388
 8.2019  1244
 8.2069  1067
 8.2119   879
 8.2169   698
 8.2219   672
 8.2269   595
 8.2319   530
 8.2369   457
 8.2419   397
 8.2469   333
 8.2519   336
 8.2569   286
 8.2619   263
 8.2669   236
 8.2719   222
 8.2769   192
 8.2819   177
 8.2869   189
 8.2919   160
 8.2969   185
 8.3019   185
 8.3069   163
 8.3119   152
 8.3169   188
 8.3219   163
 8.3269   170
 8.3318   160
 8.3368   156
 8.3418   162
 8.3468   142
 8.3518   147
 8.3568   161
 8.3618   142
 8.3668   140
 8.3718   135
 8.3768   148
 8.3818   165
 8.3868   160
 8.3918   147
 8.3968   142
 8.4018   142
 8.4068   154
 8.4118   136
 8.4168   158
 8.4218   151
 8.4268   144
 8.4318   149
 8.4368   149
 8.4418   123
 8.4468   133
 8.4518   164
 8.4568   143
 8.4618   120
 8.4668   147
 8.4718   129
 8.4768   146
 8.4818   129
 8.4868   159
 8.4918   143
 8.4968   131
 8.5018   139
 8.5068   142
 8.5118   170
 8.5168   129
 8.5218   151
 8.5268   128
 8.5318   135
 8.5368   134
 8.5418   129
 8.5468   153
 8.5518   117
 8.5568   150
 8.5618   153
 8.5668   137
 8.5718   170
 8.5768   140
 8.5818   131
 8.5868   143
 8.5918   131
 8.5968   135
 8.6018   136
 8.6068   149
 8.6118   133
 8.6168   126
 8.6218   152
 8.6268   166
 8.6318   155
 8.6368   147
 8.6418   167
 8.6468   138
 8.6518   157
 8.6568   130
 8.6618   147
 8.6667   168
 8.6717   160
 8.6767   165
 8.6817   167
 8.6867   148
 8.6917   146
 8.6967   188
 8.7017   159
 8.7067   160
 8.7117   155
 8.7167   148
 8.7217   188
 8.7267   185
 8.7317   173
 8.7367   223
 8.7417   195
 8.7467   162
 8.7517   207
 8.7567   198
 8.7617   200
 8.7667   204
 8.7717   239
 8.7767   220
 8.7817   258
 8.7867   224
 8.7917   246
 8.7967   302
 8.8017   298
 8.8067   328
 8.8117   354
 8.8167   351
 8.8217   390
 8.8267   463
 8.8317   453
 8.8367   514
 8.8417   522
 8.8467   607
 8.8517   669
 8.8567   753
 8.8617   716
 8.8667   766
 8.8717   931
 8.8767   961
 8.8817   945
 8.8867  1100
 8.8917  1095
 8.8967  1088
 8.9017  1135
 8.9067  1229
 8.9117  1246
 8.9167  1333
 8.9217  1282
 8.9267  1340
 8.9317  1314
 8.9367  1326
 8.9417  1338
 8.9467  1375
 8.9517  1320
 8.9567  1195
 8.9617  1308
 8.9667  1236
 8.9717  1163
 8.9767  1149
 8.9817  1140
 8.9867  1076
 8.9917   965
 8.9967   913
 9.0016   832
 9.0066   800
 9.0116   733
 9.0166   696
 9.0216   608
 9.0266   600
 9.0316   531
 9.0366   477
 9.0416   413
 9.0466   404
 9.0516   375
 9.0566   321
 9.0616   297
 9.0666   315
 9.0716   234
 9.0766   222
 9.0816   195
 9.0866   172
 9.0916   172
 9.0966   158
 9.1016   144
 9.1066   137
 9.1116   135
 9.1166   121
 9.1216   110
 9.1266    96
 9.1316   110
 9.1366   105
 9.1416   102
 9.1466   100
 9.1516    97
 9.1566    94
 9.1616    68
 9.1666    79
 9.1716    81
 9.1766    95
 9.1816    83
 9.1866    80
 9.1916    69
 9.1966    66
 9.2016    76
 9.2066   101
 9.2116    93
 9.2166    66
 9.2216    84
 9.2266    85
 9.2316    80
 9.2366    72
 9.2416    78
 9.2466    78
 9.2516    69
 9.2566    82
 9.2616    72
 9.2666    72
 9.2716    70
 9.2766    82
 9.2816    79
 9.2866    83
 9.2916    68
 9.2966    71
 9.3016    84
 9.3066    92
 9.3116    92
 9.3166    80
 9.3216    82
 9.3266    76
 9.3315    80
 9.3365    75
 9.3415    67
 9.3465    90
 9.3515    75
 9.3565    89
 9.3615    62
 9.3665    90
 9.3715    86
 9.3765    74
 9.3815    84
 9.3865    80
 9.3915    84
 9.3965    70
 9.4015    54
 9.4065    87
 9.4115    69
 9.4165    79
 9.4215    67
 9.4265    83
 9.4315    70
 9.4365    86
 9.4415    87
 9.4465    80
 9.4515    80
 9.4565    72
 9.4615    77
 9.4665    74
 9.4715    80
 9.4765    86
 9.4815    72
 9.4865    76
 9.4915    83
 9.4965    91
 9.5015    82
 9.5065    73
 9.5115    86
 9.5165    76
 9.5215    79
 9.5265    70
 9.5315    72
 9.5365    74
 9.5415    79
 9.5465    80
 9.5515    85
 9.5565    73
 9.5615    77
 9.5665    83
 9.5715    75
 9.5765    80
 9.5815    64
 9.5865    87
 9.5915    77
 9.5965    75
 9.6015    89
 9.6065    70
 9.6115    76
 9.6165    87
 9.6215    84
 9.6265    58
 9.6315    93
 9.6365    82
 9.6415    64
 9.6465    75
 9.6515    69
 9.6565    68
 9.6615    70
 9.6664    92
 9.6714    84
 9.6764    82
 9.6814    80
 9.6864    78
 9.6914    66
 9.6964    73
 9.7014    85
 9.7064    82
 9.7114    79
 9.7164    66
 9.7214    82
 9.7264    69
 9.7314    88
 9.7364    71
 9.7414    80
 9.7464    84
 9.7514    68
 9.7564    77
 9.7614    65
 9.7664    86
 9.7714    76
 9.7764    79
 9.7814    87
 9.7864    80
 9.7914    92
 9.7964    70
 9.8014    82
 9.8064    96
 9.8114    74
 9.8164    88
 9.8214    76
 9.8264    75
 9.8314    87
 9.8364    77
 9.8414    75
 9.8464    84
 9.8514    75
 9.8564    72
 9.8614    75
 9.8664    85
 9.8714    62
 9.8764    79
 9.8814    73
 9.8864    66
 9.8914    86
 9.8964   100
 9.9014    76
 9.9064    51
 9.9114    84
 9.9164    80
 9.9214    75
 9.9264    86
 9.9314    75
 9.9364    68
 9.9414    83
 9.9464    79
 9.9514    68
 9.9564    73
 9.9614    83
 9.9664    77
 9.9714    66
 9.9764    73
 9.9814    85
 9.9864    91
 9.9914    82
 9.9964    68
10.0013    66
10.0063    75
10.0113    96
10.0163    59
10.0213    73
10.0263    70
10.0313    72
10.0363    78
10.0413    72
10.0463    88
10.0513    77
10.0563    75
10.0613    68
10.0663    76
10.0713    79
10.0763    74
10.0813    64
10.0863    81
10.0913    63
10.0963    63
10.1013    70
10.1063    79
10.1113    65
10.1163    77
10.1213    79
10.1263    79
10.1313    71
10.1363    55
10.1413    76
10.1463    68
10.1513    97
10.1563    62
10.1613    60
10.1663    70
10.1713    57
10.1763    88
10.1813    81
10.1863    73
10.1913    89
10.1963    92
10.2013    88
10.2063    63
10.2113    75
10.2163    69
10.2213    78
10.2263    66
10.2313    76
10.2363    63
10.2413    67
10.2463    68
10.2513    69
10.2563    81
10.2613    63
10.2663    67
10.2713    77
10.2763    63
10.2813    87
10.2863    78
10.2913    69
10.2963    64
10.3013    74
10.3063    74
10.3113    58
10.3163    76
10.3213    78
10.3263    70
10.3312    80
10.3362    73
10.3412    79
10.3462    83
10.3512    79
10.3562    80
10.3612    67
10.3662    66
10.3712    62
10.3762    71
10.3812    76
10.3862    68
10.3912    59
10.3962    63
10.4012    75
10.4062    74
10.4112    72
10.4162    83
10.4212    77
10.4262    58
10.4312    57
10.4362    71
10.4412    68
10.4462    66
10.4512    75
10.4562    76
10.4612    55
10.4662    67
10.4712    71
10.4762    72
10.4812    72
10.4862    67
10.4912    66
10.4962    57
10.5012    66
10.5062    86
10.5112    76
10.5162    73
10.5212    73
10.5262    73
10.5312    53
10.5362    68
10.5412    62
10.5462    61
10.5512    81
10.5562    66
10.5612    73
10.5662    72
10.5712    69
10.5762    77
10.5812    64
10.5862    53
10.5912    79
10.5962    72
10.6012    80
10.6062    67
10.6112    69
10.6162    63
10.6212    84
10.6262    84
10.6312    61
10.6362    61
10.6412    73
10.6462    61
10.6512    70
10.6562    75
10.6612    69
10.6661    71
10.6711    71
10.6761    61
10.6811    76
10.6861    69
10.6911    72
10.6961    74
10.7011    74
10.7061    70
10.7111    74
10.7161    84
10.7211    56
10.7261    72
10.7311    74
10.7361    67
10.7411    72
10.7461    78
10.7511    67
10.7561    71
10.7611    62
10.7661    64
10.7711    63
10.7761    77
10.7811    64
10.7861    71
10.7911    78
10.7961    70
10.8011    64
10.8061    73
10.8111    74
10.8161    72
10.8211    67
10.8261    70
10.8311    63
10.8361    68
10.8411    63
10.8461    58
10.8511    66
10.8561    66
10.8611    66
10.8661    54
10.8711    65
10.8761    74
10.8811    68
10.8861    65
10.8911    73
10.8961    84
10.9011    63
10.9061    63
10.9111    66
10.9161    68
10.9211    60
10.9261    66
10.9311    70
10.9361    76
10.9411    61
10.9461    69
10.9511    62
10.9561    69
10.9611    66
10.9661    71
10.9711    68
10.9761    72
10.9811    73
10.9861    54
10.9911    61
10.9961    58
 11.001    72
 11.006    79
 11.011    71
 11.016    71
 11.021    73
 11.026    72
 11.031    60
 11.036    74
 11.041    68
 11.046    67
 11.051    79
 11.056    59
 11.061    69
 11.066    71
 11.071    79
 11.076    61
 11.081    65
 11.086    80
 11.091    67
 11.096    56
 11.101    70
 11.106    65
 11.111    55
 11.116    64
 11.121    67
 11.126    54
 11.131    87
 11.136    59
 11.141    67
 11.146    60
 11.151    68
 11.156    50
 11.161    64
 11.166    57
 11.171    53
 11.176    54
 11.181    65
 11.186    74
 11.191    75
 11.196    66
 11.201    66
 11.206    68
 11.211    73
 11.216    68
 11.221    58
 11.226    74
 11.231    71
 11.236    74
 11.241    70
 11.246    59
 11.251    63
 11.256    70
 11.261    82
 11.266    62
 11.271    54
 11.276    74
 11.281    64
 11.286    59
 11.291    67
 11.296    55
 11.301    62
 11.306    67
 11.311    79
 11.316    67
 11.321    59
 11.326    58
11.3309    53
11.3359    69
11.3409    63
11.3459    54
11.3509    62
11.3559    65
11.3609    58
11.3659    71
11.3709    60
11.3759    54
11.3809    66
11.3859    72
11.3909    64
11.3959    68
11.4009    70
11.4059    70
11.4109    61
11.4159    58
11.4209    62
11.4259    67
11.4309    69
11.4359    67
11.4409    61
11.4459    52
11.4509    77
11.4559    63
11.4609    78
11.4659    70
11.4709    57
11.4759    58
11.4809    65
11.4859    51
11.4909    64
11.4959    66
11.5009    59
11.5059    52
11.5109    66
11.5159    54
11.5209    56
11.5259    55
11.5309    90
11.5359    69
11.5409    66
11.5459    58
11.5509    64
11.5559    59
11.5609    65
11.5659    69
11.5709    56
11.5759    76
11.5809    64
11.5859    65
11.5909    67
11.5959    75
11.6009    55
11.6059    72
11.6109    70
11.6159    51
11.6209    67
11.6259    47
11.6309    58
11.6359    72
11.6409    58
11.6459    63
11.6509    59
11.6559    67
11.6609    59
11.6658    60
11.6708    59
11.6758    66
11.6808    58
11.6858    63
11.6908    67
11.6958    59
11.7008    59
11.7058    62
11.7108    56
11.7158    60
11.7208    67
11.7258    50
11.7308    78
11.7358    48
11.7408    84
11.7458    72
11.7508    53
11.7558    49
11.7608    63
11.7658    61
11.7708    57
11.7758    66
11.7808    52
11.7858    58
11.7908    57
11.7958    61
11.8008    63
11.8058    62
11.8108    70
11.8158    66
11.8208    51
11.8258    55
11.8308    59
11.8358    61
11.8408    69
11.8458    66
11.8508    52
11.8558    62
11.8608    77
11.8658    62
11.8708    63
11.8758    47
11.8808    58
11.8858    61
11.8908    52
11.8958    59
11.9008    72
11.9058    53
11.9108    54
11.9158    61
11.9208    62
11.9258    61
11.9308    60
11.9358    63
11.9408    64
11.9458    62
11.9508    60
11.9558    60
11.9608    73
11.9658    52
11.9708    62
11.9758    70
11.9808    59
11.9858    70
11.9908    61
11.9958    70
12.0007    63
12.0057    51
12.0107    63
12.0157    58
12.0207    51
12.0257    69
12.0307    56
12.0357    44
12.0407    57
12.0457    57
12.0507    65
12.0557    67
12.0607    48
12.0657    68
12.0707    74
12.0757    55
12.0807    60
12.0857    51
12.0907    50
12.0957    76
12.1007    56
12.1057    64
12.1107    65
12.1157    73
12.1207    44
12.1257    70
12.1307    68
12.1357    66
12.1407    50
12.1457    45
12.1507    72
12.1557    58
12.1607    60
12.1657    69
12.1707    61
12.1757    61
12.1807    59
12.1857    49
12.1907    61
12.1957    60
12.2007    57
12.2057    61
12.2107    55
12.2157    70
12.2207    68
12.2257    49
12.2307    51
12.2357    64
12.2407    57
12.2457    66
12.2507    61
12.2557    55
12.2607    60
12.2657    67
12.2707    50
12.2757    64
12.2807    61
12.2857    70
12.2907    64
12.2957    49
12.3007    57
12.3057    59
12.3107    66
12.3157    62
12.3207    50
12.3257    53
12.3306    52
12.3356    55
12.3406    49
12.3456    41
12.3506    59
12.3556    45
12.3606    67
12.3656    54
12.3706    66
12.3756    53
12.3806    64
12.3856    66
12.3906    68
12.3956    44
12.4006    67
12.4056    61
12.4106    55
12.4156    61
12.4206    57
12.4256    63
12.4306    49
12.4356    52
12.4406    56
12.4456    42
12.4506    58
12.4556    63
12.4606    50
12.4656    69
12.4706    53
12.4756    46
12.4806    64
12.4856    61
12.4906    54
12.4956    65
12.5006    68
12.5056    57
12.5106    57
12.5156    61
12.5206    57
12.5256    64
12.5306    48
12.5356    70
12.5406    65
12.5456    37
12.5506    45
12.5556    53
12.5606    57
12.5656    41
12.5706    56
12.5756    48
12.5806    62
12.5856    59
12.5906    59
12.5956    64
12.6006    54
12.6056    52
12.6106    52
12.6156    60
12.6206    49
12.6256    48
12.6306    55
12.6356    51
12.6406    65
12.6456    60
12.6506    64
12.6556    53
12.6606    45
12.6655    51
12.6705    55
12.6755    51
12.6805    57
12.6855    61
12.6905    53
12.6955    60
12.7005    60
12.7055    76
12.7105    57
12.7155    56
12.7205    55
12.7255    50
12.7305    68
12.7355    65
12.7405    61
12.7455    45
12.7505    33
12.7555    37
12.7605    52
12.7655    59
12.7705    51
12.7755    67
12.7805    52
12.7855    64
12.7905    41
12.7955    53
12.8005    50
12.8055    64
12.8105    47
12.8155    48
12.8205    54
12.8255    48
12.8305    51
12.8355    49
12.8405    66
12.8455    53
12.8505    52
12.8555    38
12.8605    61
12.8655    53
12.8705    52
12.8755    41
12.8805    47
12.8855    62
12.8905    54
12.8955    44
12.9005    51
12.9055    53
12.9105    53
12.9155    58
12.9205    54
12.9255    52
12.9305    72
12.9355    48
12.9405    46
12.9455    49
12.9505    54
12.9555    39
12.9605    54
12.9655    60
12.9705    48
12.9755    59
12.9805    43
12.9855    50
12.9905    49
12.9955    52
13.0004    51
13.0054    61
13.0104    55
13.0154    67
13.0204    42
13.0254    54
13.0304    58
13.0354    54
13.0404    38
13.0454    47
13.0504    49
13.0554    55
13.0604    46
13.0654    45
13.0704    55
13.0754    51
13.0804    50
13.0854    41
13.0904    40
13.0954    54
13.1004    38
13.1054    47
13.1104    50
13.1154    55
13.1204    54
13.1254    54
13.1304    49
13.1354    40
13.1404    52
13.1454    58
13.1504    51
13.1554    45
13.1604    43
13.1654    50
13.1704    40
13.1754    43
13.1804    55
13.1854    50
13.1904    60
13.1954    48
13.2004    40
13.2054    43
13.2104    52
13.2154    65
13.2204    59
13.2254    51
13.2304    47
13.2354    47
13.2404    55
13.2454    40
13.2504    51
13.2554    51
13.2604    40
13.2654    48
13.2704    53
13.2754    53
13.2804    40
13.2854    43
13.2904    50
13.2954    43
13.3004    45
13.3054    53
13.3104    54
13.3154    62
13.3204    45
13.3254    47
13.3303    49
13.3353    46
13.3403    52
13.3453    57
13.3503    49
13.3553    63
13.3603    48
13.3653    43
13.3703    59
13.3753    46
13.3803    51
13.3853    40
13.3903    63
13.3953    52
13.4003    41
13.4053    51
13.4103    47
13.4153    37
13.4203    55
13.4253    62
13.4303    39
13.4353    54
13.4403    43
13.4453    57
13.4503    55
13.4553    63
13.4603    42
13.4653    50
13.4703    43
13.4753    41
13.4803    49
13.4853    42
13.4903    44
13.4953    54
13.5003    54
13.5053    50
13.5103    50
13.5153    41
13.5203    42
13.5253    38
13.5303    44
13.5353    45
13.5403    45
13.5453    50
13.5503    43
13.5553    49
13.5603    51
13.5653    43
13.5703    47
13.5753    52
13.5803    36
13.5853    46
13.5903    39
13.5953    54
13.6003    54
13.6053    45
13.6103    38
13.6153    44
13.6203    41
13.6253    64
13.6303    41
13.6353    31
13.6403    45
13.6453    55
13.6503    33
13.6553    42
13.6603    55
13.6652    54
13.6702    57
13.6752    40
13.6802    40
13.6852    49
13.6902    46
13.6952    40
13.7002    49
13.7052    38
13.7102    49
13.7152    40
13.7202    40
13.7252    56
13.7302    43
13.7352    47
13.7402    51
13.7452    60
13.7502    34
13.7552    41
13.7602    42
13.7652    54
13.7702    42
13.7752    48
13.7802    44
13.7852    49
13.7902    47
13.7952    41
13.8002    48
13.8052    45
13.8102    49
13.8152    51
13.8202    42
13.8252    42
13.8302    40
13.8352    52
13.8402    51
13.8452    39
13.8502    45
13.8552    51
13.8602    42
13.8652    56
13.8702    36
13.8752    42
13.8802    43
13.8852    52
13.8902    48
13.8952    56
13.9002    41
13.9052    40
13.9102    45
13.9152    46
13.9202    43
13.9252    49
13.9302    38
13.9352    53
13.9402    38
13.9452    44
13.9502    41
13.9552    54
13.9602    50
13.9652    49
13.9702    44
13.9752    48
13.9802    46
13.9852    54
13.9902    43
13.9952    51
14.0001    47
14.0051    46
14.0101    52
14.0151    44
14.0201    43
14.0251    48
14.0301    45
14.0351    42
14.0401    40
14.0451    48
14.0501    45
14.0551    42
14.0601    49
14.0651    43
14.0701    42
14.0751    54
14.0801    44
14.0851    48
14.0901    47
14.0951    46
14.1001    49
14.1051    32
14.1101    40
14.1151    48
14.1201    55
14.1251    49
14.1301    37
14.1351    40
14.1401    38
14.1451    42
14.1501    43
14.1551    45
14.1601    52
14.1651    37
14.1701    58
14.1751    42
14.1801    50
14.1851    45
14.1901    49
14.1951    48
14.2001    39
14.2051    53
14.2101    46
14.2151    49
14.2201    45
14.2251    56
14.2301    38
14.2351    55
14.2401    52
14.2451    49
14.2501    51
14.2551    40
14.2601    45
14.2651    30
14.2701    37
14.2751    48
14.2801    46
14.2851    46
14.2901    41
14.2951    57
14.3001    39
14.3051    57
14.3101    47
14.3151    42
14.3201    39
14.3251    47
  14.33    38
 14.335    37
  14.34    47
 14.345    46
  14.35    43
 14.355    45
  14.36    44
 14.365    40
  14.37    32
 14.375    47
  14.38    32
 14.385    50
  14.39    37
 14.395    40
   14.4    41
 14.405    38
  14.41    38
 14.415    45
  14.42    33
 14.425    37
  14.43    47
 14.435    51
  14.44    47
 14.445    45
  14.45    45
 14.455    48
  14.46    34
 14.465    39
  14.47    32
 14.475    33
  14.48    46
 14.485    43
  14.49    62
 14.495    42
   14.5    47
 14.505    51
  14.51    33
 14.515    48
  14.52    44
 14.525    54
  14.53    47
 14.535    47
  14.54    43
 14.545    41
  14.55    38
 14.555    42
  14.56    38
 14.565    35
  14.57    46
 14.575    35
  14.58    39
 14.585    44
  14.59    39
 14.595    51
   14.6    54
 14.605    50
  14.61    41
 14.615    55
  14.62    39
 14.625    42
  14.63    46
 14.635    43
  14.64    34
 14.645    46
  14.65    30
 14.655    45
  14.66    32
14.6649    42
14.6699    41
14.6749    48
14.6799    39
14.6849    43
14.6899    48
14.6949    39
14.6999    40
14.7049    32
14.7099    38
14.7149    42
14.7199    36
14.7249    36
14.7299    41
14.7349    32
14.7399    55
14.7449    47
14.7499    41
14.7549    32
14.7599    52
14.7649    38
14.7699    35
14.7749    42
14.7799    40
14.7849    35
14.7899    38
14.7949    39
14.7999    44
14.8049    31
14.8099    40
14.8149    38
14.8199    47
14.8249    43
14.8299    35
14.8349    36
14.8399    52
14.8449    54
14.8499    50
14.8549    35
14.8599    42
14.8649    40
14.8699    44
14.8749    29
14.8799    42
14.8849    52
14.8899    41
14.8949    52
14.8999    62
14.9049    41
14.9099    36
14.9149    36
14.9199    46
14.9249    34
14.9299    43
14.9349    37
14.9399    37
14.9449    32
14.9499    35
14.9549    48
14.9599    34
14.9649    30
14.9699    36
14.9749    28
14.9799    34
14.9849    35
14.9899    53
14.9949    42
14.9998    43
15.0048    44
15.0098    41
15.0148    42
15.0198    34
15.0248    42
15.0298    40
15.0348    32
15.0398    31
15.0448    39
15.0498    48
15.0548    41
15.0598    42
15.0648    34
15.0698    42
15.0748    33
15.0798    35
15.0848    35
15.0898    30
15.0948    35
15.0998    34
15.1048    37
15.1098    33
15.1148    36
15.1198    35
15.1248    37
15.1298    55
15.1348    35
15.1398    40
15.1448    35
15.1498    36
15.1548    49
15.1598    32
15.1648    43
15.1698    33
15.1748    33
15.1798    43
15.1848    44
15.1898    45
15.1948    47
15.1998    36
15.2048    37
15.2098    40
15.2148    35
15.2198    36
15.2248    37
15.2298    49
15.2348    46
15.2398    31
15.2448    36
15.2498    30
15.2548    32
15.2598    33
15.2648    32
15.2698    41
15.2748    30
15.2798    38
15.2848    29
15.2898    36
15.2948    40
15.2998    33
15.3048    33
15.3098    30
15.3148    33
15.3198    33
15.3248    33
15.3297    35
15.3347    35
15.3397    44
15.3447    36
15.3497    44
15.3547    40
15.3597    35
15.3647    33
15.3697    37
15.3747    44
15.3797    34
15.3847    29
15.3897    30
15.3947    28
15.3997    33
15.4047    38
15.4097    42
15.4147    30
15.4197    42
15.4247    38
15.4297    31
15.4347    23
15.4397    37
15.4447    36
15.4497    37
15.4547    43
15.4597    34
15.4647    30
15.4697    43
15.4747    35
15.4797    41
15.4847    27
15.4897    39
15.4947    37
15.4997    36
15.5047    34
15.5097    29
15.5147    31
15.5197    37
15.5247    27
15.5297    24
15.5347    39
15.5397    34
15.5447    47
15.5497    37
15.5547    34
15.5597    48
15.5647    34
15.5697    37
15.5747    41
15.5797    36
15.5847    47
15.5897    41
15.5947    27
15.5997    33
15.6047    36
15.6097    54
15.6147    37
15.6197    36
15.6247    36
15.6297    39
15.6347    33
15.6397    49
15.6447    36
15.6497    49
15.6547    32
15.6597    39
15.6646    45
15.6696    37
15.6746    46
15.6796    41
15.6846    46
15.6896    52
15.6946    44
15.6996    64
15.7046    43
15.7096    53
15.7146    58
15.7196    41
15.7246    59
15.7296    59
15.7346    54
15.7396    47
15.7446    63
15.7496    65
15.7546    54
15.7596    64
15.7646    56
15.7696    63
15.7746    65
15.7796    60
15.7846    71
15.7896    68
15.7946    67
15.7996    64
15.8046    53
15.8096    55
15.8146    64
15.8196    63
15.8246    52
15.8296    59
15.8346    53
15.8396    74
15.8446    52
15.8496    60
15.8546    58
15.8596    48
15.8646    53
15.8696    55
15.8746    55
15.8796    46
15.8846    52
15.8896    45
15.8946    56
15.8996    53
15.9046    63
15.9096    45
15.9146    43
15.9196    47
15.9246    47
15.9296    47
15.9346    51
15.9396    41
15.9446    51
15.9496    46
15.9546    38
15.9596    43
15.9646    32
15.9696    32
15.9746    40
15.9796    33
15.9846    34
15.9896    43
15.9946    33
15.9995    30
16.0045    32
16.0095    33
16.0145    34
16.0195    31
16.0245    38
16.0295    29
16.0345    27
16.0395    29
16.0445    28
16.0495    44
16.0545    29
16.0595    40
16.0645    29
16.0695    32
16.0745    33
16.0795    31
16.0845    30
16.0895    35
16.0945    39
16.0995    28
16.1045    34
16.1095    28
16.1145    29
16.1195    33
16.1245    36
16.1295    42
16.1345    35
16.1395    33
16.1445    36
16.1495    30
16.1545    36
16.1595    39
16.1645    24
16.1695    23
16.1745    40
16.1795    33
16.1845    28
16.1895    38
16.1945    33
16.1995    24
16.2045    35
16.2095    32
16.2145    32
16.2195    34
16.2245    30
16.2295    30
16.2345    30
16.2395    27
16.2445    39
16.2495    30
16.2545    32
16.2595    28
16.2645    38
16.2695    19
16.2745    23
16.2795    38
16.2845    31
16.2895    36
16.2945    24
16.2995    33
16.3045    36
16.3095    35
16.3145    25
16.3195    28
16.3245    41
16.3294    38
16.3344    26
16.3394    34
16.3444    23
16.3494    28
16.3544    34
16.3594    29
16.3644    33
16.3694    34
16.3744    41
16.3794    27
16.3844    23
16.3894    22
16.3944    26
16.3994    19
16.4044    30
16.4094    36
16.4144    36
16.4194    23
16.4244    33
16.4294    28
16.4344    26
16.4394    25
16.4444    38
16.4494    29
16.4544    33
16.4594    24
16.4644    34
16.4694    18
16.4744    30
16.4794    29
16.4844    27
16.4894    25
16.4944    34
16.4994    31
16.5044    22
16.5094    32
16.5144    31
16.5194    34
16.5244    32
16.5294    26
16.5344    37
16.5394    37
16.5444    24
16.5494    30
16.5544    30
16.5594    33
16.5644    29
16.5694    22
16.5744    33
16.5794    23
16.5844    27
16.5894    27
16.5944    20
16.5994    30
16.6044    33
16.6094    33
16.6144    33
16.6194    32
16.6244    23
16.6294    34
16.6344    23
16.6394    36
16.6444    29
16.6494    28
16.6544    31
16.6594    30
16.6643    25
16.6693    28
16.6743    30
16.6793    27
16.6843    27
16.6893    34
16.6943    26
16.6993    29
16.7043    23
16.7093    26
16.7143    36
16.7193    26
16.7243    31
16.7293    34
16.7343    35
16.7393    24
16.7443    29
16.7493    28
16.7543    23
16.7593    33
16.7643    27
16.7693    20
16.7743    26
16.7793    27
16.7843    22
16.7893    17
16.7943    31
16.7993    19
16.8043    32
16.8093    26
16.8143    30
16.8193    32
16.8243    23
16.8293    31
16.8343    36
16.8393    28
16.8443    27
16.8493    31
16.8543    30
16.8593    25
16.8643    20
16.8693    29
16.8743    40
16.8793    37
16.8843    23
16.8893    32
16.8943    24
16.8993    38
16.9043    23
16.9093    36
16.9143    30
16.9193    27
16.9243    29
16.9293    26
16.9343    34
16.9393    31
16.9443    17
16.9493    26
16.9543    31
16.9593    29
16.9643    22
16.9693    28
16.9743    34
16.9793    33
16.9843    28
16.9893    37
16.9943    25
16.9992    26
17.0042    24
17.0092    23
17.0142    31
17.0192    21
17.0242    26
17.0292    29
17.0342    20
17.0392    29
17.0442    26
17.0492    37
17.0542    30
17.0592    20
17.0642    23
17.0692    35
17.0742    26
17.0792    26
17.0842    21
17.0892    25
17.0942    23
17.0992    22
17.1042    31
17.1092    31
17.1142    27
17.1192    19
17.1242    21
17.1292    24
17.1342    34
17.1392    21
17.1442    25
17.1492    22
17.1542    22
17.1592    19
17.1642    23
17.1692    20
17.1742    26
17.1792    28
17.1842    28
17.1892    26
17.1942    27
17.1992    26
17.2042    24
17.2092    35
17.2142    32
17.2192    24
17.2242    29
17.2292    32
17.2342    28
17.2392    31
17.2442    26
17.2492    30
17.2542    29
17.2592    28
17.2642    29
17.2692    34
17.2742    34
17.2792    22
17.2842    23
17.2892    24
17.2942    21
17.2992    25
17.3042    19
17.3092    32
17.3142    22
17.3192    26
17.3242    13
17.3291    23
17.3341    24
17.3391    30
17.3441    27
17.3491    26
17.3541    23
17.3591    32
17.3641    31
17.3691    21
17.3741    28
17.3791    26
17.3841    22
17.3891    26
17.3941    24
17.3991    25
17.4041    27
17.4091    25
17.4141    22
17.4191    30
17.4241    25
17.4291    23
17.4341    26
17.4391    22
17.4441    30
17.4491    33
17.4541    29
17.4591    21
17.4641    26
17.4691    21
17.4741    27
17.4791    21
17.4841    28
17.4891    17
17.4941    20
17.4991    22
17.5041    20
17.5091    28
17.5141    29
17.5191    28
17.5241    23
17.5291    28
17.5341    17
17.5391    27
17.5441    23
17.5491    24
17.5541    29
17.5591    26
17.5641    20
17.5691    31
17.5741    20
17.5791    24
17.5841    27
17.5891    27
17.5941    30
17.5991    23
17.6041    23
17.6091    27
17.6141    26
17.6191    27
17.6241    26
17.6291    26
17.6341    23
17.6391    21
17.6441    29
17.6491    30
17.6541    22
17.6591    25
 17.664    34
 17.669    28
 17.674    32
 17.679    19
 17.684    27
 17.689    32
 17.694    20
 17.699    32
 17.704    31
 17.709    22
 17.714    29
 17.719    27
 17.724    31
 17.729    20
 17.734    27
 17.739    34
 17.744    25
 17.749    19
 17.754    35
 17.759    24
 17.764    19
 17.769    26
 17.774    31
 17.779    21
 17.784    29
 17.789    28
 17.794    29
 17.799    20
 17.804    15
 17.809    32
 17.814    22
 17.819    27
 17.824    24
 17.829    26
 17.834    27
 17.839    29
 17.844    23
 17.849    33
 17.854    22
 17.859    23
 17.864    24
 17.869    31
 17.874    23
 17.879    29
 17.884    21
 17.889    19
 17.894    28
 17.899    17
 17.904    40
 17.909    18
 17.914    28
 17.919    20
 17.924    21
 17.929    16
 17.934    27
 17.939    27
 17.944    19
 17.949    19
 17.954    28
 17.959    20
 17.964    19
 17.969    25
 17.974    27
 17.979    21
 17.984    16
 17.989    23
 17.994    27
17.9989    24
18.0039    22
18.0089    14
18.0139    21
18.0189    21
18.0239    20
18.0289    19
18.0339    28
18.0389    27
18.0439    19
18.0489    25
18.0539    28
18.0589    19
18.0639    29
18.0689    27
18.0739    20
18.0789    20
18.0839    28
18.0889    20
18.0939    34
18.0989    27
18.1039    18
18.1089    23
18.1139    25
18.1189    22
18.1239    22
18.1289    22
18.1339    22
18.1389    12
18.1439    21
18.1489    21
18.1539    23
18.1589    32
18.1639    25
18.1689    24
18.1739    22
18.1789    16
18.1839    25
18.1889    14
18.1939    20
18.1989    22
18.2039    17
18.2089    22
18.2139    24
18.2189    13
18.2239    18
18.2289    19
18.2339    20
18.2389    15
18.2439    18
18.2489    24
18.2539    25
18.2589    24
18.2639    25
18.2689    19
18.2739    16
18.2789    16
18.2839    31
18.2889    17
18.2939    17
18.2989    20
18.3039    24
18.3089    20
18.3139    24
18.3189    25
18.3239    17
18.3288    17
18.3338    17
18.3388    27
18.3438    18
18.3488    19
18.3538    12
18.3588    12
18.3638    24
18.3688    15
18.3738    25
18.3788    14
18.3838    11
18.3888    24
18.3938    16
18.3988    13
18.4038    15
18.4088    16
18.4138    23
18.4188    27
18.4238    19
18.4288    17
18.4338    16
18.4388    11
18.4438    22
18.4488    18
18.4538    19
18.4588    18
18.4638    18
18.4688    27
18.4738    12
18.4788    18
18.4838    17
18.4888    18
18.4938    17
18.4988    27
18.5038    11
18.5088    15
18.5138    19
18.5188    19
18.5238    18
18.5288    17
18.5338    19
18.5388    18
18.5438    18
18.5488    23
18.5538    21
18.5588    12
18.5638    20
18.5688    11
18.5738    21
18.5788    19
18.5838    16
18.5888    16
18.5938    16
18.5988    24
18.6038    21
18.6088    20
18.6138    17
18.6188    19
18.6238    20
18.6288     9
18.6338    20
18.6388    19
18.6438    16
18.6488    17
18.6538    13
18.6588    17
18.6637    18
18.6687    10
18.6737    20
18.6787    15
18.6837    13
18.6887    18
18.6937    21
18.6987    17
18.7037    14
18.7087    10
18.7137    20
18.7187    10
18.7237    24
18.7287    14
18.7337    16
18.7387    16
18.7437    21
18.7487    23
18.7537    18
18.7587    22
18.7637    17
18.7687    20
18.7737    15
18.7787    14
18.7837    11
18.7887    16
18.7937    17
18.7987    20
18.8037    17
18.8087    19
18.8137    20
18.8187    11
18.8237    16
18.8287    18
18.8337    12
18.8387    27
18.8437    23
18.8487    19
18.8537    12
18.8587    22
18.8637    17
18.8687    23
18.8737    17
18.8787    13
18.8837    16
18.8887    14
18.8937    11
18.8987    18
18.9037    18
18.9087    17
18.9137    20
18.9187    19
18.9237    19
18.9287    18
18.9337    19
18.9387    21
18.9437    21
18.9487    15
18.9537    21
18.9587    15
18.9637    16
18.9687    21
18.9737    16
18.9787    16
18.9837    24
18.9887    26
18.9937    25
18.9986    21
19.0036    19
19.0086    17
19.0136    20
19.0186    18
19.0236    25
19.0286    18
19.0336    10
19.0386    10
19.0436    15
19.0486    21
19.0536    23
19.0586    19
19.0636    13
19.0686    11
19.0736    14
19.0786    25
19.0836    21
19.0886    15
19.0936    13
19.0986    14
19.1036    11
19.1086    17
19.1136    15
19.1186    22
19.1236    13
19.1286    17
19.1336     9
19.1386    10
19.1436    20
19.1486    21
19.1536    22
19.1586    17
19.1636    20
19.1686    13
19.1736    10
19.1786    22
19.1836    13
19.1886    26
19.1936    17
19.1986    22
19.2036    18
19.2086     8
19.2136    14
19.2186    10
19.2236    15
19.2286    12
19.2336    14
19.2386    21
19.2436    19
19.2486    15
19.2536    17
19.2586    19
19.2636    12
19.2686    22
19.2736    22
19.2786    17
19.2836    12
19.2886    20
19.2936    18
19.2986    15
19.3036    14
19.3086    12
19.3136    16
19.3186    15
19.3236    19
19.3285    22
19.3335    15
19.3385    18
19.3435    21
19.3485    25
19.3535    13
19.3585    16
19.3635    13
19.3685    14
19.3735    14
19.3785     8
19.3835    16
19.3885    15
19.3935    18
19.3985    13
19.4035    13
19.4085    20
19.4135    14
19.4185    19
19.4235    17
19.4285    11
19.4335    12
19.4385    15
19.4435    16
19.4485    13
19.4535    20
19.4585    13
19.4635    11
19.4685    13
19.4735    11
19.4785    13
19.4835    15
19.4885    20
19.4935    10
19.4985    18
19.5035    13
19.5085    12
19.5135    19
19.5185    16
19.5235    13
19.5285    11
19.5335    12
19.5385    22
19.5435    13
19.5485    15
19.5535    11
19.5585    14
19.5635    12
19.5685    20
19.5735    11
19.5785    21
19.5835    14
19.5885    15
19.5935    11
19.5985    14
19.6035    17
19.6085    23
19.6135    19
19.6185    15
19.6235    22
19.6285    15
19.6335    18
19.6385    19
19.6435    13
19.6485    18
19.6535    17
19.6585     9
19.6634    25
19.6684    18
19.6734    15
19.6784    19
19.6834    12
19.6884    15
19.6934    11
19.6984    15
19.7034    15
19.7084    11
19.7134    15
19.7184    11
19.7234    15
19.7284    12
19.7334    12
19.7384    13
19.7434    17
19.7484    11
19.7534    18
19.7584    15
19.7634    15
19.7684    23
19.7734    26
19.7784    23
19.7834    15
19.7884    15
19.7934    15
19.7984    13
19.8034     9
19.8084    14
19.8134    11
19.8184    13
19.8234    18
19.8284    13
19.8334    17
19.8384    13
19.8434    14
19.8484    24
19.8534    14
19.8584    12
19.8634     7
19.8684     8
19.8734    13
19.8784    14
19.8834    13
19.8884     9
19.8934    12
19.8984    22
19.9034    17
19.9084    19
19.9134    18
19.9184    15
19.9234    15
19.9284    17
19.9334    17
19.9384    15
19.9434    13
19.9484    12
19.9534    16
19.9584    10
19.9634    19
19.9684    15
19.9734    12
19.9784     9
19.9834    17
19.9884    16
19.9934    10
