Bruker Nano GmbH Berlin, Germany
Esprit 1.9

Date: 20.02.2020 12:50:05
Real time: 252662
Life time: 246780
Pulse density: 3684

Primary energy: 30
Take off angle: 35
Tilt angle: 0
Azimut angle: 0

Detector type: XFlash
Window type: slew AP3.3
Detector thickness: 0.45
Si dead layer:0.08

Calibration, lin.: 4.999
Calibration, abs.: -475.507
Mn FWHM: 140.573
Fano factor: 0.144
Channels: 4096

Energy Counts
-0.4755     0
-0.4705     0
-0.4655     0
-0.4605     0
-0.4555     0
-0.4505     0
-0.4455     0
-0.4405     0
-0.4355     0
-0.4305     0
-0.4255     0
-0.4205     0
-0.4155     0
-0.4105     0
-0.4055     0
-0.4005     0
-0.3955     0
-0.3905     0
-0.3855     0
-0.3805     0
-0.3755     0
-0.3705     0
-0.3655     0
-0.3605     0
-0.3555     0
-0.3505     0
-0.3455     0
-0.3405     0
-0.3355     0
-0.3306     0
-0.3256     0
-0.3206     0
-0.3156     0
-0.3106     0
-0.3056     0
-0.3006     0
-0.2956     0
-0.2906     0
-0.2856     0
-0.2806     0
-0.2756     0
-0.2706     0
-0.2656     0
-0.2606     0
-0.2556     0
-0.2506     0
-0.2456     0
-0.2406     0
-0.2356     0
-0.2306     0
-0.2256     0
-0.2206     0
-0.2156     0
-0.2106     0
-0.2056     0
-0.2006     0
-0.1956     0
-0.1906     0
-0.1856     0
-0.1806     0
-0.1756     0
-0.1706     0
-0.1656     0
-0.1606     0
-0.1556     0
-0.1506     0
-0.1456     0
-0.1406     0
-0.1356     0
-0.1306     0
-0.1256     0
-0.1206     0
-0.1156     0
-0.1106     0
-0.1056     0
-0.1006     0
-0.0956     0
-0.0906     0
-0.0856     0
-0.0806     0
-0.0756     1
-0.0706     1
-0.0656     5
-0.0606    14
-0.0556    47
-0.0506   166
-0.0456   358
-0.0406   847
-0.0356  1713
-0.0306  3314
-0.0256  5627
-0.0206  8760
-0.0156 12301
-0.0106 15544
-0.0056 18190
-0.0006 19405
 0.0043 18767
 0.0093 16415
 0.0143 13008
 0.0193  9447
 0.0243  6364
 0.0293  3672
 0.0343  2025
 0.0393  1039
 0.0443   459
 0.0493   205
 0.0543    75
 0.0593    23
 0.0643     9
 0.0693     3
 0.0743     3
 0.0793     1
 0.0843     0
 0.0893     0
 0.0943     0
 0.0993     0
 0.1043     0
 0.1093     0
 0.1143     0
 0.1193     0
 0.1243     0
 0.1293     0
 0.1343     0
 0.1393     0
 0.1443   147
 0.1493   163
 0.1543   263
 0.1593   226
 0.1643    92
 0.1693     0
 0.1743     0
 0.1793     0
 0.1843     0
 0.1893     0
 0.1943     0
 0.1993     0
 0.2043     0
 0.2093     0
 0.2143     0
 0.2193     0
 0.2243     0
 0.2293     0
 0.2343     0
 0.2393     0
 0.2443     0
 0.2493   279
 0.2543   793
 0.2593  1467
 0.2643  2314
 0.2693  3384
 0.2743  4240
 0.2793  4753
 0.2843  5051
 0.2893  4855
 0.2943  4387
 0.2993  3809
 0.3043  3193
 0.3093  2407
 0.3143  1807
 0.3193  1377
 0.3243  1149
 0.3293   833
 0.3342   680
 0.3392   585
 0.3442   483
 0.3492   412
 0.3542   408
 0.3592   451
 0.3642   444
 0.3692   446
 0.3742   410
 0.3792   411
 0.3842   443
 0.3892   443
 0.3942   440
 0.3992   412
 0.4042   336
 0.4092   343
 0.4142   392
 0.4192   324
 0.4242   342
 0.4292   283
 0.4342   342
 0.4392   325
 0.4442   279
 0.4492   278
 0.4542   332
 0.4592   317
 0.4642   323
 0.4692   341
 0.4742   289
 0.4792   291
 0.4842   305
 0.4892   363
 0.4942   364
 0.4992   357
 0.5042   393
 0.5092   426
 0.5142   423
 0.5192   396
 0.5242   441
 0.5292   441
 0.5342   428
 0.5392   434
 0.5442   345
 0.5492   354
 0.5542   283
 0.5592   312
 0.5642   281
 0.5692   239
 0.5742   223
 0.5792   200
 0.5842   281
 0.5892   227
 0.5942   231
 0.5992   270
 0.6042   238
 0.6092   245
 0.6142   255
 0.6192   206
 0.6242   243
 0.6292   202
 0.6342   246
 0.6392   214
 0.6442   251
 0.6492   234
 0.6542   216
 0.6592   237
 0.6642   235
 0.6691   231
 0.6741   250
 0.6791   215
 0.6841   246
 0.6891   199
 0.6941   196
 0.6991   213
 0.7041   259
 0.7091   252
 0.7141   223
 0.7191   181
 0.7241   237
 0.7291   210
 0.7341   257
 0.7391   212
 0.7441   160
 0.7491   210
 0.7541   259
 0.7591   286
 0.7641   277
 0.7691   284
 0.7741   357
 0.7791   374
 0.7841   384
 0.7891   420
 0.7941   453
 0.7991   563
 0.8041   557
 0.8091   619
 0.8141   617
 0.8191   652
 0.8241   673
 0.8291   634
 0.8341   680
 0.8391   594
 0.8441   631
 0.8491   684
 0.8541   637
 0.8591   730
 0.8641   815
 0.8691   836
 0.8741  1025
 0.8791  1218
 0.8841  1479
 0.8891  1872
 0.8941  2243
 0.8991  2590
 0.9041  3127
 0.9091  3701
 0.9141  4269
 0.9191  4662
 0.9241  5209
 0.9291  5463
 0.9341  5389
 0.9391  5333
 0.9441  5116
 0.9491  4820
 0.9541  4226
 0.9591  3683
 0.9641  3171
 0.9691  2673
 0.9741  2206
 0.9791  1849
 0.9841  1474
 0.9891  1377
 0.9941  1172
 0.9991  1132
  1.004  1130
  1.009  1148
  1.014  1091
  1.019  1165
  1.024  1124
  1.029  1101
  1.034  1060
  1.039   907
  1.044   895
  1.049   772
  1.054   670
  1.059   562
  1.064   477
  1.069   396
  1.074   308
  1.079   269
  1.084   205
  1.089   215
  1.094   171
  1.099   157
  1.104   159
  1.109   145
  1.114   131
  1.119   152
  1.124   144
  1.129   135
  1.134   141
  1.139   124
  1.144   134
  1.149   102
  1.154   119
  1.159   136
  1.164   132
  1.169   107
  1.174   132
  1.179   125
  1.184   119
  1.189   137
  1.194   122
  1.199   147
  1.204   145
  1.209    98
  1.214   131
  1.219   126
  1.224   141
  1.229    91
  1.234   101
  1.239   129
  1.244   105
  1.249   110
  1.254   121
  1.259   114
  1.264   143
  1.269   123
  1.274   133
  1.279   116
  1.284   116
  1.289   142
  1.294   135
  1.299   140
  1.304   122
  1.309   121
  1.314   116
  1.319   146
  1.324   124
  1.329   127
 1.3339   120
 1.3389   127
 1.3439   132
 1.3489   116
 1.3539   133
 1.3589   110
 1.3639   139
 1.3689   108
 1.3739   113
 1.3789   131
 1.3839   137
 1.3889   100
 1.3939   119
 1.3989   138
 1.4039   141
 1.4089   149
 1.4139   117
 1.4189   107
 1.4239   144
 1.4289   124
 1.4339   119
 1.4389   116
 1.4439   129
 1.4489   136
 1.4539   122
 1.4589   127
 1.4639   155
 1.4689   124
 1.4739   121
 1.4789   143
 1.4839   132
 1.4889   133
 1.4939   113
 1.4989   107
 1.5039   126
 1.5089   117
 1.5139   149
 1.5189   120
 1.5239   127
 1.5289   125
 1.5339   136
 1.5389   131
 1.5439   116
 1.5489    94
 1.5539   114
 1.5589   140
 1.5639   111
 1.5689   147
 1.5739   116
 1.5789   156
 1.5839   126
 1.5889   146
 1.5939   148
 1.5989   118
 1.6039   141
 1.6089   100
 1.6139   107
 1.6189   127
 1.6239   110
 1.6289   145
 1.6339   122
 1.6389   109
 1.6439   124
 1.6489   114
 1.6539   108
 1.6589   124
 1.6639   115
 1.6688   134
 1.6738   138
 1.6788   104
 1.6838   137
 1.6888   159
 1.6938   141
 1.6988   142
 1.7038   132
 1.7088   153
 1.7138   157
 1.7188   135
 1.7238   173
 1.7288   158
 1.7338   164
 1.7388   147
 1.7438   179
 1.7488   168
 1.7538   216
 1.7588   189
 1.7638   194
 1.7688   156
 1.7738   172
 1.7788   163
 1.7838   154
 1.7888   176
 1.7938   148
 1.7988   136
 1.8038   140
 1.8088   139
 1.8138   165
 1.8188   152
 1.8238   112
 1.8288   155
 1.8338   149
 1.8388   165
 1.8438   176
 1.8488   134
 1.8538   152
 1.8588   137
 1.8638   129
 1.8688   130
 1.8738   139
 1.8788   132
 1.8838   146
 1.8888   146
 1.8938   138
 1.8988   122
 1.9038   138
 1.9088   157
 1.9138   145
 1.9188   137
 1.9238   159
 1.9288   161
 1.9338   170
 1.9388   179
 1.9438   157
 1.9488   157
 1.9538   137
 1.9588   156
 1.9638   173
 1.9688   164
 1.9738   175
 1.9788   119
 1.9838   124
 1.9888   165
 1.9938   147
 1.9988   147
 2.0037   177
 2.0087   126
 2.0137   145
 2.0187   190
 2.0237   156
 2.0287   160
 2.0337   168
 2.0387   153
 2.0437   169
 2.0487   206
 2.0537   187
 2.0587   187
 2.0637   155
 2.0687   181
 2.0737   161
 2.0787   168
 2.0837   182
 2.0887   181
 2.0937   177
 2.0987   174
 2.1037   160
 2.1087   160
 2.1137   148
 2.1187   153
 2.1237   157
 2.1287   169
 2.1337   142
 2.1387   175
 2.1437   156
 2.1487   161
 2.1537   154
 2.1587   161
 2.1637   157
 2.1687   182
 2.1737   194
 2.1787   148
 2.1837   163
 2.1887   166
 2.1937   191
 2.1987   156
 2.2037   149
 2.2087   164
 2.2137   144
 2.2187   171
 2.2237   169
 2.2287   170
 2.2337   167
 2.2387   169
 2.2437   158
 2.2487   152
 2.2537   160
 2.2587   162
 2.2637   171
 2.2687   183
 2.2737   201
 2.2787   166
 2.2837   160
 2.2887   149
 2.2937   150
 2.2987   182
 2.3037   154
 2.3087   189
 2.3137   173
 2.3187   160
 2.3237   176
 2.3287   172
 2.3336   185
 2.3386   164
 2.3436   179
 2.3486   165
 2.3536   174
 2.3586   164
 2.3636   182
 2.3686   151
 2.3736   189
 2.3786   171
 2.3836   162
 2.3886   164
 2.3936   176
 2.3986   172
 2.4036   152
 2.4086   188
 2.4136   176
 2.4186   158
 2.4236   196
 2.4286   164
 2.4336   182
 2.4386   180
 2.4436   170
 2.4486   168
 2.4536   186
 2.4586   169
 2.4636   152
 2.4686   187
 2.4736   175
 2.4786   189
 2.4836   129
 2.4886   173
 2.4936   155
 2.4986   226
 2.5036   175
 2.5086   156
 2.5136   194
 2.5186   192
 2.5236   164
 2.5286   197
 2.5336   201
 2.5386   197
 2.5436   185
 2.5486   178
 2.5536   174
 2.5586   165
 2.5636   137
 2.5686   196
 2.5736   186
 2.5786   178
 2.5836   194
 2.5886   183
 2.5936   170
 2.5986   214
 2.6036   165
 2.6086   171
 2.6136   192
 2.6186   201
 2.6236   191
 2.6286   193
 2.6336   199
 2.6386   227
 2.6436   181
 2.6486   187
 2.6536   166
 2.6586   175
 2.6636   165
 2.6685   204
 2.6735   185
 2.6785   178
 2.6835   196
 2.6885   180
 2.6935   194
 2.6985   171
 2.7035   195
 2.7085   187
 2.7135   197
 2.7185   181
 2.7235   184
 2.7285   192
 2.7335   188
 2.7385   199
 2.7435   222
 2.7485   213
 2.7535   194
 2.7585   168
 2.7635   191
 2.7685   180
 2.7735   215
 2.7785   184
 2.7835   166
 2.7885   172
 2.7935   214
 2.7985   206
 2.8035   183
 2.8085   193
 2.8135   166
 2.8185   176
 2.8235   192
 2.8285   186
 2.8335   214
 2.8385   173
 2.8435   187
 2.8485   225
 2.8535   190
 2.8585   199
 2.8635   224
 2.8685   192
 2.8735   204
 2.8785   208
 2.8835   195
 2.8885   215
 2.8935   210
 2.8985   193
 2.9035   183
 2.9085   195
 2.9135   198
 2.9185   209
 2.9235   170
 2.9285   176
 2.9335   185
 2.9385   204
 2.9435   185
 2.9485   221
 2.9535   207
 2.9585   199
 2.9635   206
 2.9685   209
 2.9735   213
 2.9785   227
 2.9835   223
 2.9885   194
 2.9935   201
 2.9985   230
 3.0034   196
 3.0084   195
 3.0134   181
 3.0184   199
 3.0234   221
 3.0284   188
 3.0334   184
 3.0384   171
 3.0434   200
 3.0484   198
 3.0534   213
 3.0584   203
 3.0634   192
 3.0684   205
 3.0734   210
 3.0784   178
 3.0834   202
 3.0884   218
 3.0934   206
 3.0984   204
 3.1034   221
 3.1084   192
 3.1134   222
 3.1184   229
 3.1234   197
 3.1284   171
 3.1334   224
 3.1384   221
 3.1434   231
 3.1484   189
 3.1534   222
 3.1584   206
 3.1634   214
 3.1684   224
 3.1734   238
 3.1784   202
 3.1834   229
 3.1884   223
 3.1934   208
 3.1984   214
 3.2034   220
 3.2084   190
 3.2134   199
 3.2184   226
 3.2234   225
 3.2284   188
 3.2334   208
 3.2384   224
 3.2434   224
 3.2484   221
 3.2534   221
 3.2584   210
 3.2634   200
 3.2684   245
 3.2734   170
 3.2784   212
 3.2834   205
 3.2884   229
 3.2934   207
 3.2984   236
 3.3034   217
 3.3084   220
 3.3134   225
 3.3184   210
 3.3234   211
 3.3284   225
 3.3333   220
 3.3383   202
 3.3433   207
 3.3483   199
 3.3533   224
 3.3583   219
 3.3633   197
 3.3683   223
 3.3733   208
 3.3783   247
 3.3833   221
 3.3883   201
 3.3933   245
 3.3983   225
 3.4033   247
 3.4083   220
 3.4133   246
 3.4183   214
 3.4233   215
 3.4283   259
 3.4333   241
 3.4383   243
 3.4433   239
 3.4483   237
 3.4533   289
 3.4583   229
 3.4633   217
 3.4683   228
 3.4733   249
 3.4783   250
 3.4833   240
 3.4883   232
 3.4933   231
 3.4983   236
 3.5033   190
 3.5083   232
 3.5133   184
 3.5183   236
 3.5233   195
 3.5283   195
 3.5333   195
 3.5383   224
 3.5433   223
 3.5483   217
 3.5533   219
 3.5583   226
 3.5633   227
 3.5683   222
 3.5733   216
 3.5783   227
 3.5833   213
 3.5883   211
 3.5933   229
 3.5983   235
 3.6033   220
 3.6083   255
 3.6133   261
 3.6183   234
 3.6233   226
 3.6283   232
 3.6333   231
 3.6383   238
 3.6433   230
 3.6483   224
 3.6533   246
 3.6583   229
 3.6633   264
 3.6682   227
 3.6732   219
 3.6782   208
 3.6832   233
 3.6882   232
 3.6932   228
 3.6982   229
 3.7032   217
 3.7082   221
 3.7132   254
 3.7182   223
 3.7232   232
 3.7282   239
 3.7332   255
 3.7382   233
 3.7432   236
 3.7482   215
 3.7532   252
 3.7582   256
 3.7632   245
 3.7682   243
 3.7732   282
 3.7782   213
 3.7832   247
 3.7882   242
 3.7932   218
 3.7982   215
 3.8032   227
 3.8082   210
 3.8132   204
 3.8182   242
 3.8232   245
 3.8282   212
 3.8332   211
 3.8382   211
 3.8432   229
 3.8482   248
 3.8532   229
 3.8582   195
 3.8632   221
 3.8682   212
 3.8732   247
 3.8782   184
 3.8832   241
 3.8882   252
 3.8932   250
 3.8982   221
 3.9032   222
 3.9082   201
 3.9132   265
 3.9182   226
 3.9232   228
 3.9282   230
 3.9332   230
 3.9382   245
 3.9432   224
 3.9482   230
 3.9532   254
 3.9582   223
 3.9632   230
 3.9682   235
 3.9732   232
 3.9782   206
 3.9832   239
 3.9882   241
 3.9932   235
 3.9982   224
 4.0031   225
 4.0081   218
 4.0131   228
 4.0181   237
 4.0231   217
 4.0281   233
 4.0331   228
 4.0381   194
 4.0431   204
 4.0481   217
 4.0531   215
 4.0581   238
 4.0631   211
 4.0681   237
 4.0731   176
 4.0781   210
 4.0831   216
 4.0881   220
 4.0931   228
 4.0981   218
 4.1031   248
 4.1081   230
 4.1131   238
 4.1181   232
 4.1231   207
 4.1281   214
 4.1331   224
 4.1381   209
 4.1431   254
 4.1481   217
 4.1531   230
 4.1581   233
 4.1631   219
 4.1681   205
 4.1731   222
 4.1781   243
 4.1831   235
 4.1881   263
 4.1931   221
 4.1981   208
 4.2031   237
 4.2081   207
 4.2131   198
 4.2181   223
 4.2231   238
 4.2281   225
 4.2331   241
 4.2381   239
 4.2431   222
 4.2481   235
 4.2531   242
 4.2581   236
 4.2631   237
 4.2681   188
 4.2731   243
 4.2781   238
 4.2831   232
 4.2881   224
 4.2931   206
 4.2981   241
 4.3031   228
 4.3081   223
 4.3131   213
 4.3181   221
 4.3231   220
 4.3281   205
  4.333   204
  4.338   221
  4.343   205
  4.348   216
  4.353   195
  4.358   212
  4.363   246
  4.368   242
  4.373   221
  4.378   211
  4.383   248
  4.388   233
  4.393   234
  4.398   238
  4.403   235
  4.408   220
  4.413   242
  4.418   230
  4.423   227
  4.428   223
  4.433   267
  4.438   229
  4.443   248
  4.448   212
  4.453   217
  4.458   231
  4.463   189
  4.468   212
  4.473   222
  4.478   233
  4.483   225
  4.488   229
  4.493   230
  4.498   229
  4.503   214
  4.508   208
  4.513   248
  4.518   251
  4.523   215
  4.528   217
  4.533   213
  4.538   245
  4.543   205
  4.548   215
  4.553   209
  4.558   214
  4.563   229
  4.568   227
  4.573   206
  4.578   246
  4.583   218
  4.588   235
  4.593   233
  4.598   255
  4.603   219
  4.608   219
  4.613   224
  4.618   238
  4.623   258
  4.628   230
  4.633   211
  4.638   219
  4.643   224
  4.648   221
  4.653   246
  4.658   255
  4.663   222
 4.6679   223
 4.6729   230
 4.6779   231
 4.6829   219
 4.6879   243
 4.6929   231
 4.6979   215
 4.7029   201
 4.7079   240
 4.7129   225
 4.7179   201
 4.7229   209
 4.7279   204
 4.7329   199
 4.7379   196
 4.7429   218
 4.7479   216
 4.7529   203
 4.7579   210
 4.7629   228
 4.7679   208
 4.7729   201
 4.7779   237
 4.7829   209
 4.7879   210
 4.7929   210
 4.7979   219
 4.8029   209
 4.8079   204
 4.8129   194
 4.8179   225
 4.8229   220
 4.8279   242
 4.8329   195
 4.8379   259
 4.8429   270
 4.8479   219
 4.8529   198
 4.8579   223
 4.8629   235
 4.8679   218
 4.8729   218
 4.8779   245
 4.8829   198
 4.8879   234
 4.8929   218
 4.8979   223
 4.9029   230
 4.9079   214
 4.9129   192
 4.9179   203
 4.9229   243
 4.9279   224
 4.9329   207
 4.9379   199
 4.9429   204
 4.9479   207
 4.9529   210
 4.9579   214
 4.9629   195
 4.9679   204
 4.9729   191
 4.9779   218
 4.9829   235
 4.9879   216
 4.9929   207
 4.9979   224
 5.0028   197
 5.0078   202
 5.0128   204
 5.0178   211
 5.0228   206
 5.0278   196
 5.0328   237
 5.0378   218
 5.0428   232
 5.0478   225
 5.0528   210
 5.0578   206
 5.0628   212
 5.0678   225
 5.0728   229
 5.0778   192
 5.0828   231
 5.0878   222
 5.0928   213
 5.0978   212
 5.1028   218
 5.1078   220
 5.1128   239
 5.1178   203
 5.1228   252
 5.1278   214
 5.1328   212
 5.1378   184
 5.1428   213
 5.1478   220
 5.1528   236
 5.1578   223
 5.1628   235
 5.1678   198
 5.1728   226
 5.1778   225
 5.1828   216
 5.1878   197
 5.1928   244
 5.1978   213
 5.2028   192
 5.2078   229
 5.2128   205
 5.2178   208
 5.2228   208
 5.2278   249
 5.2328   219
 5.2378   189
 5.2428   198
 5.2478   207
 5.2528   195
 5.2578   209
 5.2628   178
 5.2678   187
 5.2728   230
 5.2778   184
 5.2828   234
 5.2878   209
 5.2928   196
 5.2978   191
 5.3028   178
 5.3078   229
 5.3128   215
 5.3178   203
 5.3228   195
 5.3278   199
 5.3327   208
 5.3377   217
 5.3427   203
 5.3477   201
 5.3527   229
 5.3577   216
 5.3627   196
 5.3677   200
 5.3727   192
 5.3777   201
 5.3827   229
 5.3877   223
 5.3927   186
 5.3977   250
 5.4027   228
 5.4077   237
 5.4127   229
 5.4177   242
 5.4227   205
 5.4277   232
 5.4327   239
 5.4377   206
 5.4427   235
 5.4477   274
 5.4527   191
 5.4577   231
 5.4627   196
 5.4677   223
 5.4727   213
 5.4777   209
 5.4827   215
 5.4877   254
 5.4927   208
 5.4977   185
 5.5027   236
 5.5077   190
 5.5127   182
 5.5177   220
 5.5227   199
 5.5277   223
 5.5327   193
 5.5377   220
 5.5427   181
 5.5477   227
 5.5527   205
 5.5577   207
 5.5627   178
 5.5677   219
 5.5727   195
 5.5777   198
 5.5827   203
 5.5877   218
 5.5927   192
 5.5977   207
 5.6027   217
 5.6077   218
 5.6127   219
 5.6177   198
 5.6227   209
 5.6277   192
 5.6327   204
 5.6377   211
 5.6427   211
 5.6477   206
 5.6527   194
 5.6577   237
 5.6627   200
 5.6676   200
 5.6726   172
 5.6776   201
 5.6826   192
 5.6876   211
 5.6926   203
 5.6976   212
 5.7026   220
 5.7076   204
 5.7126   260
 5.7176   171
 5.7226   226
 5.7276   210
 5.7326   203
 5.7376   195
 5.7426   199
 5.7476   199
 5.7526   210
 5.7576   205
 5.7626   249
 5.7676   197
 5.7726   208
 5.7776   189
 5.7826   203
 5.7876   207
 5.7926   205
 5.7976   207
 5.8026   213
 5.8076   187
 5.8126   196
 5.8176   232
 5.8226   213
 5.8276   199
 5.8326   185
 5.8376   215
 5.8426   203
 5.8476   196
 5.8526   183
 5.8576   213
 5.8626   195
 5.8676   213
 5.8726   177
 5.8776   189
 5.8826   245
 5.8876   225
 5.8926   208
 5.8976   206
 5.9026   211
 5.9076   207
 5.9126   198
 5.9176   214
 5.9226   218
 5.9276   198
 5.9326   208
 5.9376   217
 5.9426   203
 5.9476   181
 5.9526   220
 5.9576   194
 5.9626   197
 5.9676   199
 5.9726   206
 5.9776   197
 5.9826   181
 5.9876   179
 5.9926   178
 5.9976   199
 6.0025   201
 6.0075   211
 6.0125   218
 6.0175   211
 6.0225   186
 6.0275   177
 6.0325   200
 6.0375   187
 6.0425   196
 6.0475   218
 6.0525   213
 6.0575   225
 6.0625   220
 6.0675   207
 6.0725   207
 6.0775   202
 6.0825   198
 6.0875   194
 6.0925   199
 6.0975   207
 6.1025   183
 6.1075   190
 6.1125   192
 6.1175   188
 6.1225   197
 6.1275   206
 6.1325   180
 6.1375   197
 6.1425   192
 6.1475   207
 6.1525   189
 6.1575   191
 6.1625   197
 6.1675   216
 6.1725   210
 6.1775   196
 6.1825   194
 6.1875   193
 6.1925   197
 6.1975   188
 6.2025   196
 6.2075   198
 6.2125   218
 6.2175   199
 6.2225   199
 6.2275   189
 6.2325   204
 6.2375   209
 6.2425   190
 6.2475   227
 6.2525   191
 6.2575   200
 6.2625   209
 6.2675   196
 6.2725   206
 6.2775   203
 6.2825   228
 6.2875   204
 6.2925   206
 6.2975   203
 6.3025   228
 6.3075   248
 6.3125   219
 6.3175   213
 6.3225   200
 6.3275   214
 6.3324   202
 6.3374   221
 6.3424   229
 6.3474   246
 6.3524   253
 6.3574   250
 6.3624   272
 6.3674   277
 6.3724   271
 6.3774   294
 6.3824   259
 6.3874   305
 6.3924   318
 6.3974   301
 6.4024   300
 6.4074   353
 6.4124   297
 6.4174   302
 6.4224   320
 6.4274   336
 6.4324   335
 6.4374   309
 6.4424   314
 6.4474   338
 6.4524   315
 6.4574   304
 6.4624   307
 6.4674   265
 6.4724   281
 6.4774   306
 6.4824   270
 6.4874   267
 6.4924   227
 6.4974   266
 6.5024   234
 6.5074   239
 6.5124   242
 6.5174   240
 6.5224   206
 6.5274   226
 6.5324   234
 6.5374   230
 6.5424   203
 6.5474   218
 6.5524   186
 6.5574   175
 6.5624   174
 6.5674   184
 6.5724   164
 6.5774   210
 6.5824   162
 6.5874   187
 6.5924   194
 6.5974   206
 6.6024   209
 6.6074   182
 6.6124   204
 6.6174   184
 6.6224   192
 6.6274   192
 6.6324   216
 6.6374   202
 6.6424   197
 6.6474   165
 6.6524   178
 6.6574   163
 6.6624   205
 6.6673   177
 6.6723   167
 6.6773   179
 6.6823   196
 6.6873   182
 6.6923   184
 6.6973   199
 6.7023   181
 6.7073   184
 6.7123   172
 6.7173   197
 6.7223   184
 6.7273   187
 6.7323   188
 6.7373   183
 6.7423   204
 6.7473   157
 6.7523   180
 6.7573   176
 6.7623   161
 6.7673   202
 6.7723   196
 6.7773   203
 6.7823   181
 6.7873   180
 6.7923   216
 6.7973   177
 6.8023   201
 6.8073   178
 6.8123   202
 6.8173   209
 6.8223   187
 6.8273   188
 6.8323   174
 6.8373   180
 6.8423   208
 6.8473   189
 6.8523   181
 6.8573   210
 6.8623   175
 6.8673   188
 6.8723   188
 6.8773   192
 6.8823   213
 6.8873   151
 6.8923   172
 6.8973   196
 6.9023   163
 6.9073   204
 6.9123   208
 6.9173   206
 6.9223   173
 6.9273   189
 6.9323   154
 6.9373   185
 6.9423   190
 6.9473   182
 6.9523   196
 6.9573   182
 6.9623   203
 6.9673   184
 6.9723   174
 6.9773   197
 6.9823   196
 6.9873   172
 6.9923   194
 6.9973   192
 7.0022   202
 7.0072   186
 7.0122   176
 7.0172   185
 7.0222   185
 7.0272   195
 7.0322   187
 7.0372   172
 7.0422   207
 7.0472   183
 7.0522   212
 7.0572   214
 7.0622   207
 7.0672   204
 7.0722   222
 7.0772   214
 7.0822   194
 7.0872   213
 7.0922   202
 7.0972   202
 7.1022   208
 7.1072   213
 7.1122   189
 7.1172   209
 7.1222   223
 7.1272   214
 7.1322   196
 7.1372   192
 7.1422   201
 7.1472   196
 7.1522   193
 7.1572   202
 7.1622   186
 7.1672   214
 7.1722   188
 7.1772   170
 7.1822   218
 7.1872   180
 7.1922   202
 7.1972   201
 7.2022   218
 7.2072   206
 7.2122   200
 7.2172   166
 7.2222   185
 7.2272   182
 7.2322   208
 7.2372   178
 7.2422   188
 7.2472   202
 7.2522   212
 7.2572   197
 7.2622   180
 7.2672   204
 7.2722   158
 7.2772   191
 7.2822   184
 7.2872   201
 7.2922   199
 7.2972   192
 7.3022   182
 7.3072   189
 7.3122   177
 7.3172   209
 7.3222   192
 7.3272   211
 7.3321   180
 7.3371   183
 7.3421   200
 7.3471   186
 7.3521   181
 7.3571   219
 7.3621   220
 7.3671   191
 7.3721   223
 7.3771   211
 7.3821   227
 7.3871   195
 7.3921   225
 7.3971   224
 7.4021   251
 7.4071   247
 7.4121   226
 7.4171   258
 7.4221   223
 7.4271   246
 7.4321   256
 7.4371   274
 7.4421   329
 7.4471   291
 7.4521   304
 7.4571   338
 7.4621   325
 7.4671   350
 7.4721   319
 7.4771   373
 7.4821   354
 7.4871   359
 7.4921   366
 7.4971   356
 7.5021   364
 7.5071   345
 7.5121   359
 7.5171   356
 7.5221   332
 7.5271   344
 7.5321   373
 7.5371   354
 7.5421   319
 7.5471   331
 7.5521   312
 7.5571   294
 7.5621   256
 7.5671   301
 7.5721   279
 7.5771   268
 7.5821   282
 7.5871   298
 7.5921   270
 7.5971   233
 7.6021   230
 7.6071   252
 7.6121   216
 7.6171   247
 7.6221   210
 7.6271   224
 7.6321   238
 7.6371   204
 7.6421   228
 7.6471   231
 7.6521   190
 7.6571   201
 7.6621   209
  7.667   208
  7.672   211
  7.677   237
  7.682   216
  7.687   205
  7.692   224
  7.697   219
  7.702   212
  7.707   194
  7.712   223
  7.717   203
  7.722   188
  7.727   208
  7.732   196
  7.737   223
  7.742   209
  7.747   248
  7.752   244
  7.757   201
  7.762   210
  7.767   249
  7.772   217
  7.777   261
  7.782   228
  7.787   244
  7.792   228
  7.797   254
  7.802   240
  7.807   239
  7.812   265
  7.817   243
  7.822   292
  7.827   263
  7.832   258
  7.837   280
  7.842   274
  7.847   308
  7.852   270
  7.857   290
  7.862   315
  7.867   302
  7.872   314
  7.877   313
  7.882   320
  7.887   409
  7.892   423
  7.897   440
  7.902   400
  7.907   457
  7.912   485
  7.917   524
  7.922   626
  7.927   702
  7.932   709
  7.937   844
  7.942   971
  7.947  1124
  7.952  1221
  7.957  1348
  7.962  1494
  7.967  1770
  7.972  1839
  7.977  2235
  7.982  2403
  7.987  2635
  7.992  2841
  7.997  3089
 8.0019  3421
 8.0069  3657
 8.0119  3914
 8.0169  4349
 8.0219  4638
 8.0269  4930
 8.0319  5086
 8.0369  5324
 8.0419  5500
 8.0469  5835
 8.0519  5920
 8.0569  6109
 8.0619  6060
 8.0669  6094
 8.0719  6370
 8.0769  6198
 8.0819  6194
 8.0869  6005
 8.0919  5881
 8.0969  5681
 8.1019  5388
 8.1069  5276
 8.1119  5098
 8.1169  4828
 8.1219  4459
 8.1269  4229
 8.1319  3941
 8.1369  3603
 8.1419  3382
 8.1469  3060
 8.1519  2797
 8.1569  2476
 8.1619  2324
 8.1669  2074
 8.1719  1793
 8.1769  1716
 8.1819  1356
 8.1869  1224
 8.1919  1156
 8.1969   972
 8.2019   866
 8.2069   701
 8.2119   665
 8.2169   654
 8.2219   508
 8.2269   467
 8.2319   405
 8.2369   352
 8.2419   328
 8.2469   294
 8.2519   339
 8.2569   287
 8.2619   288
 8.2669   257
 8.2719   255
 8.2769   223
 8.2819   266
 8.2869   216
 8.2919   204
 8.2969   217
 8.3019   207
 8.3069   211
 8.3119   211
 8.3169   215
 8.3219   248
 8.3269   238
 8.3318   233
 8.3368   193
 8.3418   212
 8.3468   207
 8.3518   214
 8.3568   200
 8.3618   248
 8.3668   229
 8.3718   210
 8.3768   211
 8.3818   201
 8.3868   204
 8.3918   185
 8.3968   194
 8.4018   212
 8.4068   182
 8.4118   179
 8.4168   172
 8.4218   199
 8.4268   165
 8.4318   215
 8.4368   194
 8.4418   250
 8.4468   193
 8.4518   224
 8.4568   216
 8.4618   260
 8.4668   246
 8.4718   254
 8.4768   264
 8.4818   261
 8.4868   309
 8.4918   259
 8.4968   312
 8.5018   380
 8.5068   422
 8.5118   429
 8.5168   434
 8.5218   502
 8.5268   557
 8.5318   626
 8.5368   716
 8.5418   755
 8.5468   826
 8.5518   944
 8.5568  1031
 8.5618  1131
 8.5668  1272
 8.5718  1355
 8.5768  1548
 8.5818  1593
 8.5868  1697
 8.5918  1980
 8.5968  2169
 8.6018  2188
 8.6068  2410
 8.6118  2545
 8.6168  2703
 8.6218  2842
 8.6268  2994
 8.6318  3100
 8.6368  3055
 8.6418  3234
 8.6468  3296
 8.6518  3371
 8.6568  3396
 8.6618  3405
 8.6667  3370
 8.6717  3535
 8.6767  3445
 8.6817  3276
 8.6867  3205
 8.6917  3244
 8.6967  3083
 8.7017  2900
 8.7067  2806
 8.7117  2602
 8.7167  2423
 8.7217  2325
 8.7267  2181
 8.7317  1973
 8.7367  1822
 8.7417  1779
 8.7467  1623
 8.7517  1439
 8.7567  1353
 8.7617  1249
 8.7667  1077
 8.7717   991
 8.7767   911
 8.7817   842
 8.7867   763
 8.7917   692
 8.7967   633
 8.8017   585
 8.8067   514
 8.8117   496
 8.8167   460
 8.8217   510
 8.8267   490
 8.8317   470
 8.8367   463
 8.8417   460
 8.8467   504
 8.8517   490
 8.8567   553
 8.8617   548
 8.8667   564
 8.8717   644
 8.8767   652
 8.8817   626
 8.8867   670
 8.8917   685
 8.8967   770
 8.9017   804
 8.9067   810
 8.9117   871
 8.9167   861
 8.9217   889
 8.9267   886
 8.9317   907
 8.9367   881
 8.9417   906
 8.9467   871
 8.9517   914
 8.9567   838
 8.9617   851
 8.9667   847
 8.9717   805
 8.9767   776
 8.9817   715
 8.9867   662
 8.9917   679
 8.9967   646
 9.0016   568
 9.0066   573
 9.0116   543
 9.0166   499
 9.0216   455
 9.0266   432
 9.0316   378
 9.0366   369
 9.0416   361
 9.0466   335
 9.0516   258
 9.0566   256
 9.0616   267
 9.0666   214
 9.0716   224
 9.0766   212
 9.0816   212
 9.0866   148
 9.0916   148
 9.0966   174
 9.1016   117
 9.1066   161
 9.1116   126
 9.1166   145
 9.1216   120
 9.1266   100
 9.1316   106
 9.1366    90
 9.1416   101
 9.1466   109
 9.1516   101
 9.1566   109
 9.1616   102
 9.1666   119
 9.1716   112
 9.1766   109
 9.1816   112
 9.1866    99
 9.1916   101
 9.1966   104
 9.2016   109
 9.2066    86
 9.2116    96
 9.2166   104
 9.2216    90
 9.2266   101
 9.2316   109
 9.2366    99
 9.2416    87
 9.2466    96
 9.2516   103
 9.2566   102
 9.2616    87
 9.2666   123
 9.2716    98
 9.2766    97
 9.2816   119
 9.2866    87
 9.2916    90
 9.2966    95
 9.3016    98
 9.3066    98
 9.3116    93
 9.3166   111
 9.3216    97
 9.3266   106
 9.3315   102
 9.3365    82
 9.3415   104
 9.3465   111
 9.3515   105
 9.3565   119
 9.3615   112
 9.3665   100
 9.3715   123
 9.3765   105
 9.3815    96
 9.3865    86
 9.3915   104
 9.3965    89
 9.4015   103
 9.4065   121
 9.4115   119
 9.4165   101
 9.4215   126
 9.4265   110
 9.4315   130
 9.4365   126
 9.4415   112
 9.4465   120
 9.4515   123
 9.4565   151
 9.4615   123
 9.4665   155
 9.4715   151
 9.4765   156
 9.4815   157
 9.4865   166
 9.4915   199
 9.4965   187
 9.5015   197
 9.5065   237
 9.5115   233
 9.5165   234
 9.5215   266
 9.5265   272
 9.5315   259
 9.5365   296
 9.5415   306
 9.5465   359
 9.5515   369
 9.5565   333
 9.5615   342
 9.5665   371
 9.5715   405
 9.5765   394
 9.5815   377
 9.5865   451
 9.5915   419
 9.5965   431
 9.6015   455
 9.6065   439
 9.6115   406
 9.6165   441
 9.6215   412
 9.6265   422
 9.6315   432
 9.6365   380
 9.6415   387
 9.6465   396
 9.6515   350
 9.6565   334
 9.6615   358
 9.6664   285
 9.6714   339
 9.6764   295
 9.6814   270
 9.6864   267
 9.6914   254
 9.6964   252
 9.7014   217
 9.7064   212
 9.7114   200
 9.7164   194
 9.7214   170
 9.7264   171
 9.7314   154
 9.7364   132
 9.7414   157
 9.7464   124
 9.7514   130
 9.7564   128
 9.7614   131
 9.7664   127
 9.7714   103
 9.7764   100
 9.7814    92
 9.7864    87
 9.7914    96
 9.7964    90
 9.8014    60
 9.8064    64
 9.8114    72
 9.8164    94
 9.8214    84
 9.8264   101
 9.8314    81
 9.8364    79
 9.8414    83
 9.8464    76
 9.8514    79
 9.8564    89
 9.8614    92
 9.8664    86
 9.8714    89
 9.8764    75
 9.8814    75
 9.8864    64
 9.8914    71
 9.8964    77
 9.9014    87
 9.9064    77
 9.9114    65
 9.9164    86
 9.9214    61
 9.9264    67
 9.9314    74
 9.9364    64
 9.9414    97
 9.9464    89
 9.9514    77
 9.9564    82
 9.9614    76
 9.9664    78
 9.9714    83
 9.9764    64
 9.9814    78
 9.9864    91
 9.9914    85
 9.9964    83
10.0013    77
10.0063    81
10.0113    81
10.0163    87
10.0213    76
10.0263    71
10.0313    79
10.0363    84
10.0413    64
10.0463    84
10.0513    72
10.0563    76
10.0613    73
10.0663    64
10.0713    79
10.0763    82
10.0813    75
10.0863    81
10.0913    85
10.0963    65
10.1013    80
10.1063    75
10.1113    85
10.1163    72
10.1213    73
10.1263    72
10.1313    81
10.1363    73
10.1413    86
10.1463    84
10.1513    70
10.1563    78
10.1613    94
10.1663    68
10.1713    72
10.1763    67
10.1813    75
10.1863    83
10.1913    75
10.1963    63
10.2013    73
10.2063    61
10.2113    72
10.2163    87
10.2213    86
10.2263    87
10.2313    87
10.2363    81
10.2413    81
10.2463    83
10.2513    82
10.2563    80
10.2613    92
10.2663    83
10.2713    59
10.2763    71
10.2813    78
10.2863    73
10.2913    70
10.2963    77
10.3013    87
10.3063    67
10.3113    82
10.3163    90
10.3213    63
10.3263    88
10.3312    67
10.3362    61
10.3412    86
10.3462    73
10.3512    78
10.3562    92
10.3612    80
10.3662    96
10.3712    81
10.3762    71
10.3812    73
10.3862    79
10.3912    73
10.3962    72
10.4012    79
10.4062    88
10.4112    86
10.4162    91
10.4212    80
10.4262    73
10.4312    67
10.4362    83
10.4412    74
10.4462    72
10.4512    70
10.4562    76
10.4612    89
10.4662    99
10.4712    76
10.4762    77
10.4812    78
10.4862    95
10.4912    75
10.4962    76
10.5012    90
10.5062    90
10.5112    77
10.5162    91
10.5212    59
10.5262    77
10.5312    68
10.5362    76
10.5412    72
10.5462    75
10.5512    58
10.5562    83
10.5612    74
10.5662    81
10.5712    93
10.5762    81
10.5812    84
10.5862    85
10.5912    68
10.5962    64
10.6012    67
10.6062    57
10.6112    88
10.6162    67
10.6212    71
10.6262    86
10.6312    81
10.6362    68
10.6412    87
10.6462    67
10.6512    79
10.6562    59
10.6612    80
10.6661    78
10.6711    86
10.6761    62
10.6811    78
10.6861    88
10.6911    77
10.6961    77
10.7011    90
10.7061    60
10.7111    78
10.7161    64
10.7211    66
10.7261    67
10.7311    78
10.7361    61
10.7411    97
10.7461    77
10.7511    72
10.7561    82
10.7611    84
10.7661    87
10.7711    70
10.7761    54
10.7811    68
10.7861    73
10.7911    86
10.7961    79
10.8011    93
10.8061    89
10.8111    67
10.8161    68
10.8211    78
10.8261    79
10.8311    68
10.8361    73
10.8411    71
10.8461    69
10.8511    64
10.8561    69
10.8611    86
10.8661    66
10.8711    87
10.8761    66
10.8811    84
10.8861    62
10.8911    73
10.8961    69
10.9011    64
10.9061    85
10.9111    74
10.9161    64
10.9211    72
10.9261   100
10.9311    79
10.9361    75
10.9411    78
10.9461    77
10.9511    66
10.9561    79
10.9611    71
10.9661    90
10.9711    72
10.9761    76
10.9811    83
10.9861    64
10.9911    72
10.9961    60
 11.001    73
 11.006    76
 11.011    86
 11.016    52
 11.021    80
 11.026    69
 11.031    76
 11.036    80
 11.041    82
 11.046    82
 11.051    70
 11.056    89
 11.061    64
 11.066    63
 11.071    82
 11.076    62
 11.081    66
 11.086    61
 11.091    73
 11.096    62
 11.101    65
 11.106    71
 11.111    77
 11.116    59
 11.121    58
 11.126    63
 11.131    76
 11.136    89
 11.141    64
 11.146    60
 11.151    56
 11.156    69
 11.161    75
 11.166    75
 11.171    71
 11.176    71
 11.181    77
 11.186    83
 11.191    63
 11.196    66
 11.201    58
 11.206    67
 11.211    70
 11.216    57
 11.221    79
 11.226    87
 11.231    83
 11.236    71
 11.241    59
 11.246    68
 11.251    58
 11.256    51
 11.261    63
 11.266    65
 11.271    71
 11.276    55
 11.281    68
 11.286    67
 11.291    90
 11.296    62
 11.301    72
 11.306    82
 11.311    50
 11.316    70
 11.321    75
 11.326    71
11.3309    71
11.3359    66
11.3409    62
11.3459    66
11.3509    83
11.3559    81
11.3609    64
11.3659    67
11.3709    52
11.3759    60
11.3809    71
11.3859    55
11.3909    50
11.3959    65
11.4009    62
11.4059    74
11.4109    72
11.4159    67
11.4209    63
11.4259    63
11.4309    53
11.4359    77
11.4409    75
11.4459    58
11.4509    78
11.4559    74
11.4609    68
11.4659    70
11.4709    65
11.4759    70
11.4809    72
11.4859    87
11.4909    93
11.4959    72
11.5009    68
11.5059    73
11.5109    82
11.5159    53
11.5209    66
11.5259    66
11.5309    67
11.5359    73
11.5409    68
11.5459    65
11.5509    55
11.5559    64
11.5609    64
11.5659    62
11.5709    72
11.5759    76
11.5809    76
11.5859    69
11.5909    70
11.5959    62
11.6009    55
11.6059    67
11.6109    71
11.6159    63
11.6209    70
11.6259    69
11.6309    62
11.6359    74
11.6409    70
11.6459    72
11.6509    77
11.6559    68
11.6609    62
11.6658    69
11.6708    51
11.6758    72
11.6808    60
11.6858    56
11.6908    72
11.6958    57
11.7008    66
11.7058    49
11.7108    51
11.7158    64
11.7208    61
11.7258    74
11.7308    71
11.7358    78
11.7408    63
11.7458    75
11.7508    58
11.7558    73
11.7608    55
11.7658    76
11.7708    66
11.7758    56
11.7808    68
11.7858    71
11.7908    64
11.7958    62
11.8008    64
11.8058    57
11.8108    72
11.8158    81
11.8208    62
11.8258    63
11.8308    57
11.8358    54
11.8408    68
11.8458    62
11.8508    70
11.8558    49
11.8608    63
11.8658    63
11.8708    75
11.8758    71
11.8808    62
11.8858    65
11.8908    79
11.8958    57
11.9008    67
11.9058    51
11.9108    57
11.9158    65
11.9208    57
11.9258    62
11.9308    61
11.9358    54
11.9408    64
11.9458    65
11.9508    62
11.9558    58
11.9608    62
11.9658    58
11.9708    50
11.9758    52
11.9808    70
11.9858    58
11.9908    55
11.9958    76
12.0007    69
12.0057    73
12.0107    67
12.0157    67
12.0207    55
12.0257    65
12.0307    70
12.0357    65
12.0407    72
12.0457    54
12.0507    70
12.0557    68
12.0607    58
12.0657    82
12.0707    61
12.0757    56
12.0807    70
12.0857    66
12.0907    48
12.0957    70
12.1007    57
12.1057    74
12.1107    64
12.1157    67
12.1207    68
12.1257    66
12.1307    58
12.1357    63
12.1407    69
12.1457    63
12.1507    69
12.1557    56
12.1607    59
12.1657    73
12.1707    68
12.1757    58
12.1807    63
12.1857    61
12.1907    59
12.1957    76
12.2007    54
12.2057    70
12.2107    54
12.2157    58
12.2207    56
12.2257    60
12.2307    60
12.2357    50
12.2407    67
12.2457    66
12.2507    62
12.2557    64
12.2607    62
12.2657    63
12.2707    59
12.2757    67
12.2807    74
12.2857    54
12.2907    47
12.2957    60
12.3007    62
12.3057    53
12.3107    58
12.3157    49
12.3207    54
12.3257    53
12.3306    52
12.3356    64
12.3406    60
12.3456    66
12.3506    69
12.3556    69
12.3606    60
12.3656    59
12.3706    74
12.3756    61
12.3806    66
12.3856    71
12.3906    60
12.3956    52
12.4006    76
12.4056    45
12.4106    52
12.4156    66
12.4206    52
12.4256    58
12.4306    61
12.4356    60
12.4406    61
12.4456    69
12.4506    50
12.4556    66
12.4606    64
12.4656    76
12.4706    76
12.4756    67
12.4806    68
12.4856    58
12.4906    81
12.4956    72
12.5006    56
12.5056    56
12.5106    74
12.5156    53
12.5206    56
12.5256    69
12.5306    71
12.5356    62
12.5406    44
12.5456    52
12.5506    47
12.5556    61
12.5606    60
12.5656    63
12.5706    63
12.5756    67
12.5806    46
12.5856    48
12.5906    50
12.5956    79
12.6006    67
12.6056    65
12.6106    52
12.6156    52
12.6206    58
12.6256    58
12.6306    52
12.6356    55
12.6406    51
12.6456    50
12.6506    55
12.6556    50
12.6606    70
12.6655    61
12.6705    62
12.6755    65
12.6805    66
12.6855    58
12.6905    49
12.6955    49
12.7005    68
12.7055    51
12.7105    64
12.7155    61
12.7205    65
12.7255    61
12.7305    61
12.7355    45
12.7405    55
12.7455    52
12.7505    73
12.7555    59
12.7605    51
12.7655    67
12.7705    56
12.7755    69
12.7805    60
12.7855    51
12.7905    54
12.7955    53
12.8005    51
12.8055    64
12.8105    77
12.8155    63
12.8205    65
12.8255    68
12.8305    60
12.8355    49
12.8405    48
12.8455    59
12.8505    59
12.8555    44
12.8605    47
12.8655    67
12.8705    62
12.8755    72
12.8805    65
12.8855    74
12.8905    56
12.8955    52
12.9005    68
12.9055    60
12.9105    68
12.9155    56
12.9205    53
12.9255    54
12.9305    64
12.9355    60
12.9405    50
12.9455    50
12.9505    48
12.9555    57
12.9605    48
12.9655    53
12.9705    59
12.9755    55
12.9805    60
12.9855    50
12.9905    57
12.9955    55
13.0004    54
13.0054    65
13.0104    58
13.0154    40
13.0204    51
13.0254    46
13.0304    53
13.0354    68
13.0404    50
13.0454    58
13.0504    58
13.0554    54
13.0604    58
13.0654    50
13.0704    46
13.0754    53
13.0804    62
13.0854    50
13.0904    62
13.0954    41
13.1004    68
13.1054    57
13.1104    62
13.1154    53
13.1204    58
13.1254    56
13.1304    56
13.1354    54
13.1404    50
13.1454    38
13.1504    55
13.1554    57
13.1604    49
13.1654    50
13.1704    64
13.1754    58
13.1804    65
13.1854    51
13.1904    52
13.1954    50
13.2004    51
13.2054    53
13.2104    52
13.2154    55
13.2204    54
13.2254    49
13.2304    45
13.2354    48
13.2404    49
13.2454    52
13.2504    45
13.2554    68
13.2604    46
13.2654    58
13.2704    61
13.2754    63
13.2804    60
13.2854    50
13.2904    59
13.2954    52
13.3004    42
13.3054    71
13.3104    51
13.3154    57
13.3204    60
13.3254    45
13.3303    48
13.3353    43
13.3403    45
13.3453    54
13.3503    51
13.3553    49
13.3603    63
13.3653    52
13.3703    55
13.3753    53
13.3803    39
13.3853    56
13.3903    48
13.3953    49
13.4003    57
13.4053    53
13.4103    46
13.4153    49
13.4203    77
13.4253    44
13.4303    38
13.4353    52
13.4403    54
13.4453    35
13.4503    42
13.4553    32
13.4603    65
13.4653    47
13.4703    56
13.4753    48
13.4803    46
13.4853    69
13.4903    63
13.4953    61
13.5003    48
13.5053    71
13.5103    45
13.5153    45
13.5203    48
13.5253    37
13.5303    63
13.5353    47
13.5403    46
13.5453    59
13.5503    57
13.5553    61
13.5603    48
13.5653    57
13.5703    54
13.5753    61
13.5803    47
13.5853    49
13.5903    53
13.5953    54
13.6003    54
13.6053    51
13.6103    47
13.6153    62
13.6203    34
13.6253    50
13.6303    66
13.6353    53
13.6403    51
13.6453    55
13.6503    45
13.6553    56
13.6603    52
13.6652    56
13.6702    52
13.6752    53
13.6802    51
13.6852    59
13.6902    55
13.6952    46
13.7002    42
13.7052    55
13.7102    46
13.7152    56
13.7202    53
13.7252    45
13.7302    52
13.7352    52
13.7402    46
13.7452    49
13.7502    36
13.7552    44
13.7602    45
13.7652    57
13.7702    56
13.7752    58
13.7802    57
13.7852    49
13.7902    29
13.7952    50
13.8002    50
13.8052    49
13.8102    56
13.8152    54
13.8202    55
13.8252    57
13.8302    59
13.8352    48
13.8402    42
13.8452    60
13.8502    55
13.8552    39
13.8602    49
13.8652    56
13.8702    49
13.8752    46
13.8802    35
13.8852    52
13.8902    46
13.8952    45
13.9002    61
13.9052    45
13.9102    48
13.9152    47
13.9202    40
13.9252    39
13.9302    40
13.9352    40
13.9402    54
13.9452    33
13.9502    35
13.9552    54
13.9602    42
13.9652    44
13.9702    65
13.9752    40
13.9802    40
13.9852    46
13.9902    42
13.9952    49
14.0001    49
14.0051    41
14.0101    55
14.0151    52
14.0201    57
14.0251    46
14.0301    56
14.0351    38
14.0401    47
14.0451    44
14.0501    51
14.0551    39
14.0601    49
14.0651    39
14.0701    51
14.0751    48
14.0801    54
14.0851    36
14.0901    46
14.0951    47
14.1001    36
14.1051    49
14.1101    43
14.1151    43
14.1201    63
14.1251    44
14.1301    39
14.1351    48
14.1401    55
14.1451    52
14.1501    39
14.1551    43
14.1601    46
14.1651    38
14.1701    46
14.1751    46
14.1801    52
14.1851    46
14.1901    49
14.1951    52
14.2001    43
14.2051    57
14.2101    42
14.2151    64
14.2201    43
14.2251    50
14.2301    39
14.2351    57
14.2401    42
14.2451    33
14.2501    52
14.2551    46
14.2601    39
14.2651    33
14.2701    46
14.2751    53
14.2801    48
14.2851    32
14.2901    43
14.2951    46
14.3001    49
14.3051    34
14.3101    52
14.3151    59
14.3201    57
14.3251    45
  14.33    43
 14.335    47
  14.34    45
 14.345    42
  14.35    52
 14.355    48
  14.36    57
 14.365    46
  14.37    41
 14.375    39
  14.38    55
 14.385    37
  14.39    46
 14.395    38
   14.4    48
 14.405    43
  14.41    48
 14.415    45
  14.42    50
 14.425    43
  14.43    44
 14.435    40
  14.44    51
 14.445    40
  14.45    50
 14.455    59
  14.46    48
 14.465    35
  14.47    36
 14.475    45
  14.48    44
 14.485    48
  14.49    60
 14.495    50
   14.5    55
 14.505    35
  14.51    37
 14.515    47
  14.52    45
 14.525    40
  14.53    40
 14.535    55
  14.54    59
 14.545    44
  14.55    45
 14.555    44
  14.56    44
 14.565    31
  14.57    47
 14.575    47
  14.58    42
 14.585    45
  14.59    48
 14.595    38
   14.6    51
 14.605    42
  14.61    36
 14.615    39
  14.62    42
 14.625    51
  14.63    49
 14.635    40
  14.64    45
 14.645    58
  14.65    51
 14.655    46
  14.66    32
14.6649    39
14.6699    51
14.6749    56
14.6799    34
14.6849    46
14.6899    40
14.6949    43
14.6999    35
14.7049    54
14.7099    48
14.7149    38
14.7199    42
14.7249    55
14.7299    40
14.7349    44
14.7399    35
14.7449    28
14.7499    44
14.7549    44
14.7599    56
14.7649    44
14.7699    48
14.7749    49
14.7799    41
14.7849    42
14.7899    44
14.7949    46
14.7999    39
14.8049    36
14.8099    46
14.8149    38
14.8199    40
14.8249    41
14.8299    35
14.8349    52
14.8399    44
14.8449    32
14.8499    40
14.8549    40
14.8599    46
14.8649    39
14.8699    30
14.8749    43
14.8799    43
14.8849    37
14.8899    37
14.8949    60
14.8999    42
14.9049    39
14.9099    30
14.9149    46
14.9199    40
14.9249    43
14.9299    50
14.9349    33
14.9399    32
14.9449    40
14.9499    55
14.9549    49
14.9599    48
14.9649    34
14.9699    47
14.9749    40
14.9799    38
14.9849    38
14.9899    48
14.9949    40
14.9998    36
15.0048    36
15.0098    36
15.0148    55
15.0198    28
15.0248    39
15.0298    43
15.0348    43
15.0398    41
15.0448    45
15.0498    42
15.0548    33
15.0598    42
15.0648    40
15.0698    36
15.0748    49
15.0798    34
15.0848    41
15.0898    39
15.0948    55
15.0998    36
15.1048    37
15.1098    35
15.1148    46
15.1198    48
15.1248    43
15.1298    36
15.1348    45
15.1398    40
15.1448    46
15.1498    35
15.1548    33
15.1598    35
15.1648    34
15.1698    46
15.1748    42
15.1798    40
15.1848    44
15.1898    35
15.1948    37
15.1998    43
15.2048    39
15.2098    35
15.2148    50
15.2198    37
15.2248    37
15.2298    32
15.2348    43
15.2398    41
15.2448    35
15.2498    44
15.2548    40
15.2598    36
15.2648    40
15.2698    35
15.2748    42
15.2798    41
15.2848    48
15.2898    46
15.2948    39
15.2998    32
15.3048    43
15.3098    40
15.3148    34
15.3198    31
15.3248    46
15.3297    43
15.3347    43
15.3397    40
15.3447    33
15.3497    47
15.3547    37
15.3597    43
15.3647    45
15.3697    26
15.3747    42
15.3797    47
15.3847    49
15.3897    34
15.3947    48
15.3997    35
15.4047    31
15.4097    42
15.4147    43
15.4197    33
15.4247    49
15.4297    44
15.4347    45
15.4397    36
15.4447    38
15.4497    39
15.4547    45
15.4597    29
15.4647    43
15.4697    40
15.4747    42
15.4797    29
15.4847    31
15.4897    35
15.4947    51
15.4997    30
15.5047    37
15.5097    49
15.5147    38
15.5197    40
15.5247    42
15.5297    25
15.5347    39
15.5397    39
15.5447    31
15.5497    36
15.5547    39
15.5597    34
15.5647    46
15.5697    30
15.5747    43
15.5797    35
15.5847    35
15.5897    22
15.5947    30
15.5997    47
15.6047    42
15.6097    55
15.6147    48
15.6197    37
15.6247    39
15.6297    37
15.6347    54
15.6397    50
15.6447    52
15.6497    40
15.6547    40
15.6597    49
15.6646    59
15.6696    57
15.6746    46
15.6796    56
15.6846    33
15.6896    51
15.6946    47
15.6996    48
15.7046    49
15.7096    48
15.7146    52
15.7196    54
15.7246    82
15.7296    75
15.7346    52
15.7396    52
15.7446    67
15.7496    49
15.7546    62
15.7596    60
15.7646    44
15.7696    64
15.7746    70
15.7796    60
15.7846    64
15.7896    65
15.7946    60
15.7996    61
15.8046    69
15.8096    79
15.8146    53
15.8196    60
15.8246    67
15.8296    71
15.8346    64
15.8396    75
15.8446    74
15.8496    48
15.8546    65
15.8596    62
15.8646    75
15.8696    52
15.8746    50
15.8796    54
15.8846    62
15.8896    53
15.8946    63
15.8996    49
15.9046    45
15.9096    48
15.9146    71
15.9196    49
15.9246    47
15.9296    62
15.9346    57
15.9396    45
15.9446    35
15.9496    35
15.9546    45
15.9596    49
15.9646    39
15.9696    40
15.9746    47
15.9796    38
15.9846    45
15.9896    25
15.9946    31
15.9995    37
16.0045    36
16.0095    35
16.0145    51
16.0195    31
16.0245    42
16.0295    37
16.0345    37
16.0395    36
16.0445    41
16.0495    33
16.0545    35
16.0595    28
16.0645    30
16.0695    38
16.0745    38
16.0795    39
16.0845    29
16.0895    30
16.0945    27
16.0995    29
16.1045    27
16.1095    35
16.1145    30
16.1195    27
16.1245    31
16.1295    38
16.1345    30
16.1395    41
16.1445    30
16.1495    29
16.1545    32
16.1595    38
16.1645    32
16.1695    39
16.1745    32
16.1795    30
16.1845    44
16.1895    36
16.1945    44
16.1995    35
16.2045    42
16.2095    39
16.2145    43
16.2195    35
16.2245    25
16.2295    41
16.2345    30
16.2395    34
16.2445    35
16.2495    32
16.2545    25
16.2595    28
16.2645    39
16.2695    35
16.2745    28
16.2795    33
16.2845    28
16.2895    30
16.2945    39
16.2995    36
16.3045    33
16.3095    37
16.3145    35
16.3195    35
16.3245    23
16.3294    39
16.3344    29
16.3394    32
16.3444    41
16.3494    41
16.3544    32
16.3594    28
16.3644    33
16.3694    34
16.3744    25
16.3794    21
16.3844    35
16.3894    36
16.3944    34
16.3994    34
16.4044    31
16.4094    37
16.4144    31
16.4194    38
16.4244    33
16.4294    39
16.4344    30
16.4394    28
16.4444    43
16.4494    42
16.4544    30
16.4594    40
16.4644    38
16.4694    33
16.4744    38
16.4794    38
16.4844    34
16.4894    31
16.4944    44
16.4994    28
16.5044    34
16.5094    26
16.5144    27
16.5194    33
16.5244    37
16.5294    37
16.5344    23
16.5394    35
16.5444    32
16.5494    33
16.5544    41
16.5594    29
16.5644    36
16.5694    35
16.5744    35
16.5794    23
16.5844    29
16.5894    32
16.5944    31
16.5994    30
16.6044    33
16.6094    23
16.6144    41
16.6194    37
16.6244    21
16.6294    30
16.6344    29
16.6394    39
16.6444    25
16.6494    26
16.6544    26
16.6594    31
16.6643    26
16.6693    24
16.6743    26
16.6793    32
16.6843    39
16.6893    31
16.6943    29
16.6993    26
16.7043    51
16.7093    34
16.7143    31
16.7193    36
16.7243    30
16.7293    28
16.7343    24
16.7393    39
16.7443    28
16.7493    31
16.7543    29
16.7593    33
16.7643    27
16.7693    27
16.7743    30
16.7793    30
16.7843    27
16.7893    40
16.7943    23
16.7993    38
16.8043    38
16.8093    29
16.8143    27
16.8193    37
16.8243    28
16.8293    33
16.8343    24
16.8393    31
16.8443    27
16.8493    36
16.8543    23
16.8593    37
16.8643    27
16.8693    27
16.8743    24
16.8793    38
16.8843    28
16.8893    27
16.8943    25
16.8993    24
16.9043    31
16.9093    35
16.9143    36
16.9193    20
16.9243    32
16.9293    25
16.9343    27
16.9393    26
16.9443    36
16.9493    45
16.9543    21
16.9593    25
16.9643    24
16.9693    34
16.9743    40
16.9793    31
16.9843    33
16.9893    27
16.9943    33
16.9992    30
17.0042    20
17.0092    23
17.0142    36
17.0192    27
17.0242    30
17.0292    26
17.0342    30
17.0392    21
17.0442    28
17.0492    23
17.0542    42
17.0592    31
17.0642    36
17.0692    43
17.0742    21
17.0792    25
17.0842    25
17.0892    27
17.0942    25
17.0992    28
17.1042    37
17.1092    34
17.1142    28
17.1192    23
17.1242    29
17.1292    25
17.1342    25
17.1392    24
17.1442    30
17.1492    36
17.1542    24
17.1592    26
17.1642    33
17.1692    28
17.1742    27
17.1792    33
17.1842    28
17.1892    25
17.1942    29
17.1992    38
17.2042    36
17.2092    28
17.2142    28
17.2192    31
17.2242    21
17.2292    22
17.2342    27
17.2392    27
17.2442    25
17.2492    27
17.2542    28
17.2592    32
17.2642    28
17.2692    32
17.2742    24
17.2792    30
17.2842    21
17.2892    28
17.2942    22
17.2992    20
17.3042    23
17.3092    25
17.3142    25
17.3192    33
17.3242    28
17.3291    30
17.3341    18
17.3391    35
17.3441    29
17.3491    29
17.3541    33
17.3591    33
17.3641    36
17.3691    18
17.3741    24
17.3791    21
17.3841    29
17.3891    31
17.3941    29
17.3991    35
17.4041    33
17.4091    25
17.4141    25
17.4191    34
17.4241    27
17.4291    34
17.4341    33
17.4391    21
17.4441    27
17.4491    24
17.4541    32
17.4591    24
17.4641    29
17.4691    19
17.4741    32
17.4791    21
17.4841    27
17.4891    32
17.4941    21
17.4991    24
17.5041    26
17.5091    22
17.5141    23
17.5191    28
17.5241    26
17.5291    26
17.5341    15
17.5391    23
17.5441    26
17.5491    27
17.5541    33
17.5591    21
17.5641    27
17.5691    24
17.5741    25
17.5791    32
17.5841    24
17.5891    37
17.5941    20
17.5991    27
17.6041    37
17.6091    27
17.6141    21
17.6191    28
17.6241    18
17.6291    32
17.6341    28
17.6391    25
17.6441    16
17.6491    28
17.6541    29
17.6591    32
 17.664    27
 17.669    34
 17.674    34
 17.679    27
 17.684    25
 17.689    40
 17.694    28
 17.699    33
 17.704    30
 17.709    32
 17.714    43
 17.719    24
 17.724    25
 17.729    30
 17.734    27
 17.739    34
 17.744    31
 17.749    38
 17.754    26
 17.759    28
 17.764    35
 17.769    28
 17.774    32
 17.779    36
 17.784    22
 17.789    32
 17.794    25
 17.799    36
 17.804    24
 17.809    29
 17.814    31
 17.819    37
 17.824    20
 17.829    30
 17.834    24
 17.839    21
 17.844    19
 17.849    33
 17.854    28
 17.859    23
 17.864    14
 17.869    25
 17.874    28
 17.879    18
 17.884    23
 17.889    27
 17.894    22
 17.899    24
 17.904    27
 17.909    23
 17.914    18
 17.919    20
 17.924    29
 17.929    24
 17.934    29
 17.939    22
 17.944    22
 17.949    17
 17.954    22
 17.959    25
 17.964    24
 17.969    20
 17.974    23
 17.979    22
 17.984    26
 17.989    19
 17.994    28
17.9989    18
18.0039    22
18.0089    24
18.0139    29
18.0189    12
18.0239    26
18.0289    22
18.0339    21
18.0389    24
18.0439    17
18.0489    27
18.0539    26
18.0589    21
18.0639    14
18.0689    33
18.0739    20
18.0789    28
18.0839    21
18.0889    22
18.0939    20
18.0989    20
18.1039    20
18.1089    29
18.1139    22
18.1189    21
18.1239    15
18.1289    24
18.1339    20
18.1389    28
18.1439    21
18.1489    21
18.1539    22
18.1589    22
18.1639    23
18.1689    17
18.1739    25
18.1789    18
18.1839    25
18.1889    29
18.1939    31
18.1989    19
18.2039    17
18.2089    30
18.2139    25
18.2189    21
18.2239    18
18.2289    26
18.2339    14
18.2389    17
18.2439    14
18.2489    20
18.2539    14
18.2589    19
18.2639    18
18.2689    22
18.2739    16
18.2789    18
18.2839    26
18.2889    20
18.2939    15
18.2989    21
18.3039    20
18.3089    29
18.3139    21
18.3189    17
18.3239    28
18.3288     8
18.3338    18
18.3388    25
18.3438    18
18.3488    19
18.3538    22
18.3588    23
18.3638    26
18.3688    21
18.3738    17
18.3788    18
18.3838    19
18.3888    14
18.3938    23
18.3988    20
18.4038    29
18.4088    21
18.4138    19
18.4188    30
18.4238    15
18.4288    18
18.4338    21
18.4388    26
18.4438    25
18.4488    20
18.4538    14
18.4588    21
18.4638    16
18.4688    17
18.4738    18
18.4788    27
18.4838    15
18.4888    19
18.4938    22
18.4988    20
18.5038    21
18.5088    28
18.5138    15
18.5188    19
18.5238    30
18.5288    19
18.5338    20
18.5388    19
18.5438    15
18.5488    29
18.5538    23
18.5588    20
18.5638    22
18.5688    12
18.5738    24
18.5788    20
18.5838    21
18.5888    23
18.5938    16
18.5988    29
18.6038    20
18.6088    14
18.6138    22
18.6188    21
18.6238    18
18.6288    27
18.6338    25
18.6388    17
18.6438    26
18.6488    22
18.6538    23
18.6588    14
18.6637    17
18.6687    15
18.6737    20
18.6787    21
18.6837    19
18.6887    21
18.6937    13
18.6987    19
18.7037    24
18.7087    17
18.7137    23
18.7187    29
18.7237    15
18.7287    20
18.7337    15
18.7387    20
18.7437    17
18.7487    12
18.7537    20
18.7587    20
18.7637    16
18.7687    20
18.7737    19
18.7787    18
18.7837    18
18.7887    16
18.7937    20
18.7987    21
18.8037    14
18.8087    17
18.8137    17
18.8187    16
18.8237    17
18.8287    24
18.8337    18
18.8387    12
18.8437    13
18.8487    23
18.8537    20
18.8587    25
18.8637    22
18.8687    23
18.8737    27
18.8787    12
18.8837    19
18.8887    19
18.8937    26
18.8987    24
18.9037    21
18.9087    19
18.9137    16
18.9187    19
18.9237    15
18.9287    25
18.9337    20
18.9387    18
18.9437    11
18.9487    21
18.9537    20
18.9587    18
18.9637    17
18.9687    12
18.9737    13
18.9787    15
18.9837    32
18.9887    19
18.9937    19
18.9986    12
19.0036    17
19.0086    26
19.0136    20
19.0186    26
19.0236    24
19.0286    17
19.0336    27
19.0386    18
19.0436    16
19.0486    26
19.0536    17
19.0586    19
19.0636    16
19.0686    16
19.0736    19
19.0786    18
19.0836    19
19.0886    15
19.0936    19
19.0986    18
19.1036    22
19.1086    20
19.1136    14
19.1186    25
19.1236    18
19.1286    24
19.1336    19
19.1386    15
19.1436    21
19.1486    16
19.1536    13
19.1586    14
19.1636    17
19.1686    16
19.1736    12
19.1786    18
19.1836    17
19.1886    16
19.1936    19
19.1986    17
19.2036    13
19.2086    23
19.2136    22
19.2186    14
19.2236    20
19.2286    17
19.2336    16
19.2386    19
19.2436    17
19.2486    24
19.2536    12
19.2586    20
19.2636    24
19.2686    18
19.2736    18
19.2786    32
19.2836    21
19.2886    15
19.2936    15
19.2986    20
19.3036    18
19.3086    26
19.3136    10
19.3186    14
19.3236    20
19.3285    20
19.3335    23
19.3385    23
19.3435    14
19.3485    14
19.3535    23
19.3585    19
19.3635    25
19.3685    16
19.3735    17
19.3785    23
19.3835    12
19.3885    19
19.3935    23
19.3985    19
19.4035    25
19.4085    20
19.4135    32
19.4185    15
19.4235    25
19.4285    11
19.4335    17
19.4385    15
19.4435    20
19.4485    14
19.4535    14
19.4585    17
19.4635    18
19.4685    17
19.4735    19
19.4785    13
19.4835    11
19.4885    18
19.4935    16
19.4985    12
19.5035    20
19.5085    18
19.5135    18
19.5185    18
19.5235     9
19.5285     8
19.5335    14
19.5385    18
19.5435    14
19.5485    25
19.5535    20
19.5585    23
19.5635    16
19.5685    17
19.5735    14
19.5785    11
19.5835    12
19.5885    17
19.5935    21
19.5985    15
19.6035    17
19.6085    12
19.6135    19
19.6185    31
19.6235    17
19.6285    15
19.6335    11
19.6385    23
19.6435    14
19.6485    13
19.6535    14
19.6585    13
19.6634    17
19.6684    13
19.6734    12
19.6784    18
19.6834    21
19.6884    23
19.6934    18
19.6984    18
19.7034    10
19.7084    16
19.7134    20
19.7184     9
19.7234    19
19.7284    20
19.7334    14
19.7384    17
19.7434    10
19.7484    12
19.7534    14
19.7584    13
19.7634    14
19.7684    17
19.7734    21
19.7784    13
19.7834    18
19.7884    18
19.7934    11
19.7984    16
19.8034    14
19.8084    11
19.8134    17
19.8184    17
19.8234    13
19.8284    10
19.8334    22
19.8384    13
19.8434    22
19.8484    16
19.8534    19
19.8584    17
19.8634    16
19.8684    13
19.8734    17
19.8784    16
19.8834    10
19.8884    17
19.8934    19
19.8984    19
19.9034    14
19.9084    16
19.9134    15
19.9184    23
19.9234    11
19.9284     7
19.9334    18
19.9384    14
19.9434    16
19.9484    15
19.9534    18
19.9584    20
19.9634    16
19.9684    17
19.9734    10
19.9784    13
19.9834    20
19.9884    18
19.9934    12
